! S21 sweep bladeRF - TX0=38 db | RX0=50 db | RX1=50 db - 2025-12-11T11:58:31
# Frequency [MHz], |S21| [db], |Mag_meas| [db], Phase [deg]
5.100000e+09 -24.271742 105.059210 34.906839
5.100250e+09 -23.779941 104.982208 35.941935
5.100500e+09 -23.891539 104.830708 36.803877
5.100750e+09 -24.043601 105.092714 35.455357
5.101000e+09 -23.405690 105.193301 35.907890
5.101250e+09 -23.739953 105.071014 37.834367
5.101500e+09 -23.839578 104.975672 37.876658
5.101750e+09 -24.005800 105.033558 32.498016
5.102000e+09 -23.768510 104.738278 36.370014
5.102250e+09 -23.614013 104.693914 36.159105
5.102500e+09 -23.595512 104.964081 34.382651
5.102750e+09 -24.189900 105.107632 33.905362
5.103000e+09 -24.180156 104.961161 34.372799
5.103250e+09 -23.567055 105.039476 33.369095
5.103500e+09 -24.345092 104.835373 34.983783
5.103750e+09 -24.301934 104.679393 35.880535
5.104000e+09 -24.027167 104.568215 37.282003
5.104250e+09 -23.719248 104.875527 34.106083
5.104500e+09 -24.277794 104.901416 33.601009
5.104750e+09 -24.289405 104.894027 33.520260
5.105000e+09 -24.098548 105.025498 33.065343
5.105250e+09 -24.045690 104.944927 33.348014
5.105500e+09 -24.172472 104.859365 33.472956
5.105750e+09 -23.994560 104.983632 34.203153
5.106000e+09 -23.487387 105.066296 33.517535
5.106250e+09 -23.861827 104.726609 36.011759
5.106500e+09 -23.630023 104.868676 30.911780
5.106750e+09 -23.969577 104.666579 33.374053
5.107000e+09 -23.670246 104.852832 33.835516
5.107250e+09 -23.353646 104.916278 32.081697
5.107500e+09 -23.445802 104.930728 31.837653
5.107750e+09 -24.202477 104.732730 33.307628
5.108000e+09 -23.866755 104.501824 34.768170
5.108250e+09 -23.861992 104.779694 32.409956
5.108500e+09 -24.127143 104.806558 31.625667
5.108750e+09 -23.735380 104.548479 33.573373
5.109000e+09 -23.884480 104.774168 33.510825
5.109250e+09 -24.156578 104.855001 30.878422
5.109500e+09 -23.815313 104.684674 33.538531
5.109750e+09 -24.608584 104.504259 31.829408
5.110000e+09 -23.489392 104.648251 30.552687
5.110250e+09 -23.601953 104.502669 32.786277
5.110500e+09 -23.979461 104.571610 33.604878
5.110750e+09 -23.793843 104.428307 31.426351
5.111000e+09 -23.609577 104.448807 31.458124
5.111250e+09 -23.832188 104.720934 31.522721
5.111500e+09 -24.199949 104.787130 29.487836
5.111750e+09 -23.636025 104.846428 29.102942
5.112000e+09 -24.003210 104.758225 29.371430
5.112250e+09 -24.158959 104.704868 29.546581
5.112500e+09 -23.962715 104.703355 29.733270
5.112750e+09 -23.750886 104.825579 29.671673
5.113000e+09 -23.687205 104.643014 29.903942
5.113250e+09 -23.509206 104.582439 29.639905
5.113500e+09 -23.863777 104.629881 31.648588
5.113750e+09 -24.264087 104.690009 29.113390
5.114000e+09 -23.658598 104.721664 28.574160
5.114250e+09 -23.539977 104.795033 29.608624
5.114500e+09 -24.406229 104.465667 31.377208
5.114750e+09 -24.008834 104.309857 31.715935
5.115000e+09 -23.867463 104.203710 31.640045
5.115250e+09 -23.972921 104.415219 30.740641
5.115500e+09 -23.800210 104.632471 28.145377
5.115750e+09 -24.124568 104.698677 26.827989
5.116000e+09 -23.682034 104.691708 28.546067
5.116250e+09 -23.863963 104.612232 29.373984
5.116500e+09 -23.528789 104.420384 28.625002
5.116750e+09 -23.992965 104.223924 29.877884
5.117000e+09 -24.073560 104.218234 30.001410
5.117250e+09 -23.911511 104.119982 29.932063
5.117500e+09 -24.071299 104.309703 29.032707
5.117750e+09 -24.044246 104.326814 28.934568
5.118000e+09 -23.995386 104.154629 29.351700
5.118250e+09 -23.870481 104.382731 26.349408
5.118500e+09 -23.818180 104.541390 26.372162
5.118750e+09 -23.943394 104.272183 28.644887
5.119000e+09 -23.751269 104.326699 27.040986
5.119250e+09 -23.662262 104.358827 26.832612
5.119500e+09 -24.133915 104.265290 27.538476
5.119750e+09 -23.977736 104.225094 27.196388
5.120000e+09 -24.010174 104.268932 28.116711
5.120250e+09 -24.133309 104.064677 28.844794
5.120500e+09 -24.383820 104.171378 26.879291
5.120750e+09 -23.962819 104.178580 27.393337
5.121000e+09 -23.831054 104.036943 28.011747
5.121250e+09 -23.919144 104.300924 26.511822
5.121500e+09 -23.988601 104.288863 27.127384
5.121750e+09 -23.964488 104.187608 26.509204
5.122000e+09 -24.192166 104.018977 27.205850
5.122250e+09 -23.895173 104.262499 25.731365
5.122500e+09 -23.862735 104.373833 24.700041
5.122750e+09 -23.694304 104.448421 25.083760
5.123000e+09 -23.957851 104.140798 26.640316
5.123250e+09 -24.118386 104.077332 26.639348
5.123500e+09 -24.187071 103.875044 27.178893
5.123750e+09 -23.875134 104.194763 25.438804
5.124000e+09 -24.031347 104.106931 25.761784
5.124250e+09 -23.897194 104.251983 24.626045
5.124500e+09 -23.984587 104.136205 25.277495
5.124750e+09 -23.926819 104.257557 24.284281
5.125000e+09 -24.002211 104.090875 25.070436
5.125250e+09 -24.174502 103.824660 25.811671
5.125500e+09 -23.905802 104.173816 24.460854
5.125750e+09 -24.072722 103.876290 25.403024
5.126000e+09 -24.143673 103.697268 26.096919
5.126250e+09 -24.133749 103.631069 26.337039
5.126500e+09 -24.029138 104.098129 24.621334
5.126750e+09 -23.746527 104.150874 23.818854
5.127000e+09 -23.682525 103.836083 24.976392
5.127250e+09 -23.985910 103.608468 25.935430
5.127500e+09 -23.933419 104.062732 24.539550
5.127750e+09 -23.909177 104.173845 23.894266
5.128000e+09 -24.116533 103.809826 24.799462
5.128250e+09 -23.786885 103.637798 25.533834
5.128500e+09 -23.688114 103.678417 25.188800
5.128750e+09 -23.730824 103.980801 24.312391
5.129000e+09 -24.091022 103.912687 24.387378
5.129250e+09 -24.073122 103.974710 23.922606
5.129500e+09 -24.011473 104.043840 23.441718
5.129750e+09 -23.642356 103.949133 23.116791
5.130000e+09 -24.062029 103.862774 23.370966
5.130250e+09 -23.665472 103.900920 23.297711
5.130500e+09 -23.690383 103.563896 24.414199
5.130750e+09 -24.157024 103.661561 24.105053
5.131000e+09 -23.652270 103.659992 24.041895
5.131250e+09 -24.121382 103.663975 23.758060
5.131500e+09 -23.794020 103.902845 23.199435
5.131750e+09 -23.585101 103.785716 22.980357
5.132000e+09 -23.755377 103.425424 24.108718
5.132250e+09 -24.097258 103.289106 24.740257
5.132500e+09 -23.759462 103.652029 23.792640
5.132750e+09 -23.999301 103.741190 23.135575
5.133000e+09 -24.109238 103.552850 23.347029
5.133250e+09 -24.011635 103.308057 23.980602
5.133500e+09 -23.923338 103.195810 24.442134
5.133750e+09 -24.075780 103.171948 24.352604
5.134000e+09 -24.156940 103.486645 23.269807
5.134250e+09 -23.692076 103.652824 22.544030
5.134500e+09 -23.825068 103.767996 21.963433
5.134750e+09 -24.007654 103.633867 21.874701
5.135000e+09 -23.722140 103.261668 22.889827
5.135250e+09 -23.705523 103.174553 23.221790
5.135500e+09 -23.687128 103.154351 23.377972
5.135750e+09 -24.039910 103.475865 22.603176
5.136000e+09 -23.621220 103.469183 22.382277
5.136250e+09 -23.921807 103.575071 21.957958
5.136500e+09 -23.571074 103.402808 22.098138
5.136750e+09 -23.560327 103.224821 22.614266
5.137000e+09 -23.611138 103.399751 22.425327
5.137250e+09 -23.565125 103.394780 22.296815
5.137500e+09 -23.807621 103.066033 23.771695
5.137750e+09 -23.636786 103.135481 22.845402
5.138000e+09 -23.912778 102.990874 24.174868
5.138250e+09 -23.907276 103.369293 22.712879
5.138500e+09 -23.536190 103.231619 22.167723
5.138750e+09 -24.030301 103.088853 22.579315
5.139000e+09 -24.098587 103.050470 22.611655
5.139250e+09 -24.095258 103.168908 21.947041
5.139500e+09 -23.652531 103.289736 21.386938
5.139750e+09 -23.506379 103.148098 21.015013
5.140000e+09 -23.736885 102.874155 22.561513
5.140250e+09 -24.114981 102.966102 22.531089
5.140500e+09 -23.959471 102.833743 22.949229
5.140750e+09 -23.690984 102.783316 22.184597
5.141000e+09 -23.704442 102.759868 22.035301
5.141250e+09 -23.962924 102.730332 23.044579
5.141500e+09 -23.782154 102.683380 22.766913
5.141750e+09 -23.795635 102.677492 22.741376
5.142000e+09 -24.020351 103.062074 21.269558
5.142250e+09 -23.997540 103.013676 21.226174
5.142500e+09 -23.534936 102.820880 20.959710
5.142750e+09 -23.673141 103.042793 19.961032
5.143000e+09 -23.477487 102.863032 20.418247
5.143250e+09 -23.580269 102.981523 20.209760
5.143500e+09 -23.764477 102.726120 22.233283
5.143750e+09 -23.735455 102.549343 22.428901
5.144000e+09 -23.696504 102.521009 22.097479
5.144250e+09 -24.091286 102.604542 22.358164
5.144500e+09 -23.747167 102.497112 22.122094
5.144750e+09 -23.636168 102.680635 20.712354
5.145000e+09 -24.003739 102.673169 21.705984
5.145250e+09 -24.045462 102.832872 20.705205
5.145500e+09 -23.804142 102.573613 21.469407
5.145750e+09 -23.932590 102.465051 21.663530
5.146000e+09 -24.013767 102.788198 19.809427
5.146250e+09 -23.670757 102.483573 20.494175
5.146500e+09 -24.044678 102.723645 19.602889
5.146750e+09 -23.617768 102.465548 20.461801
5.147000e+09 -23.920679 102.364951 21.179456
5.147250e+09 -24.099759 102.465284 20.840746
5.147500e+09 -24.055548 102.630464 19.926132
5.147750e+09 -23.869737 102.810594 18.555409
5.148000e+09 -23.775918 102.867061 18.071074
5.148250e+09 -23.597335 102.839108 17.805531
5.148500e+09 -23.905063 102.676533 19.092545
5.148750e+09 -23.462336 102.592080 18.176222
5.149000e+09 -23.903247 102.435362 19.933487
5.149250e+09 -23.914749 102.642554 18.633754
5.149500e+09 -23.940563 102.571273 19.286548
5.149750e+09 -23.498548 102.308896 19.296723
5.150000e+09 -24.050468 102.427608 19.269488
5.150250e+09 -23.621464 102.591117 18.070545
5.150500e+09 -23.486503 102.248197 19.467518
5.150750e+09 -23.958135 102.191119 20.483952
5.151000e+09 -23.680849 102.055395 20.209272
5.151250e+09 -24.019211 102.137295 20.118282
5.151500e+09 -24.042001 102.305376 19.288262
5.151750e+09 -23.970321 102.391217 18.903247
5.152000e+09 -23.536596 102.123373 19.185903
5.152250e+09 -23.539231 102.119698 17.589324
5.152500e+09 -23.890905 102.404560 17.456459
5.152750e+09 -23.539170 102.092381 19.843416
5.153000e+09 -24.035760 102.242174 19.300053
5.153250e+09 -23.657091 102.046285 19.692404
5.153500e+09 -23.619207 102.224877 17.001218
5.153750e+09 -23.663852 101.992397 20.187109
5.154000e+09 -23.908372 102.251397 18.117135
5.154250e+09 -23.421054 102.025364 18.305640
5.154500e+09 -23.945769 102.234134 17.975516
5.154750e+09 -23.627785 101.980993 20.180367
5.155000e+09 -23.878847 101.865324 20.257657
5.155250e+09 -23.886522 102.170144 17.176420
5.155500e+09 -23.823900 102.280174 16.840366
5.155750e+09 -23.852271 102.255495 17.834020
5.156000e+09 -23.845415 102.115207 18.840838
5.156250e+09 -23.884135 102.006254 18.915152
5.156500e+09 -23.727652 102.206708 15.998877
5.156750e+09 -23.412811 102.112167 15.248357
5.157000e+09 -23.626163 101.837497 18.232712
5.157250e+09 -23.644195 101.998353 15.831071
5.157500e+09 -23.442921 101.855524 16.748672
5.157750e+09 -23.926537 102.022881 17.206191
5.158000e+09 -23.370764 101.841762 17.604013
5.158250e+09 -23.771573 101.666002 19.280545
5.158500e+09 -23.745343 101.941540 16.480670
5.158750e+09 -23.830784 102.044080 16.756214
5.159000e+09 -23.391467 101.974087 15.639268
5.159250e+09 -23.672886 102.065629 15.970196
5.159500e+09 -23.594006 102.088866 15.977459
5.159750e+09 -23.329046 101.825288 16.581963
5.160000e+09 -23.913750 101.876267 18.010494
5.160250e+09 -23.863264 101.833255 18.956624
5.160500e+09 -23.730645 101.940037 15.754243
5.160750e+09 -23.417294 101.667785 16.515331
5.161000e+09 -23.579810 101.432305 16.988174
5.161250e+09 -24.056087 101.641745 17.886557
5.161500e+09 -23.487194 101.621291 17.184064
5.161750e+09 -23.669981 101.768879 15.257628
5.162000e+09 -23.873526 101.790974 17.695070
5.162250e+09 -23.435358 101.689820 16.881496
5.162500e+09 -23.589337 101.439389 17.246225
5.162750e+09 -23.757967 101.337384 17.566567
5.163000e+09 -23.817069 101.286487 17.786751
5.163250e+09 -23.582701 101.354311 17.486415
5.163500e+09 -23.999982 101.574613 16.937934
5.163750e+09 -23.498494 101.451106 16.843337
5.164000e+09 -23.936988 101.523723 17.466337
5.164250e+09 -23.507344 101.444468 17.029522
5.164500e+09 -23.632335 101.243402 17.071110
5.164750e+09 -23.631839 101.453137 16.465036
5.165000e+09 -23.491729 101.427833 16.407727
5.165250e+09 -23.875521 101.577148 16.022981
5.165500e+09 -23.471411 101.390212 16.395691
5.165750e+09 -23.897162 101.491346 16.460212
5.166000e+09 -23.719020 101.349778 17.020947
5.166250e+09 -23.922004 101.482453 16.046829
5.166500e+09 -23.839361 101.439513 16.673185
5.166750e+09 -23.867731 101.491459 15.532369
5.167000e+09 -23.772624 101.541107 14.669820
5.167250e+09 -23.626074 101.222743 15.290365
5.167500e+09 -23.709705 101.403796 15.012929
5.167750e+09 -23.503352 101.370426 15.063551
5.168000e+09 -23.691933 101.175696 15.353454
5.168250e+09 -23.814728 101.287302 15.283793
5.168500e+09 -23.816533 101.289536 15.603062
5.168750e+09 -23.651021 100.934438 15.932032
5.169000e+09 -23.710271 100.828323 16.055628
5.169250e+09 -23.802798 101.175191 15.696883
5.169500e+09 -23.810170 101.178144 15.710880
5.169750e+09 -23.587184 101.037301 15.631748
5.170000e+09 -23.534028 101.160203 15.266046
5.170250e+09 -23.739228 101.259518 15.112821
5.170500e+09 -23.774388 101.273986 14.911515
5.170750e+09 -23.743213 101.013992 15.272465
5.171000e+09 -23.755468 101.204690 14.915884
5.171250e+09 -23.710108 101.281546 14.566457
5.171500e+09 -23.756158 101.097409 14.828563
5.171750e+09 -23.766207 101.191806 14.525500
5.172000e+09 -23.595079 100.891090 14.796170
5.172250e+09 -23.713424 100.649406 15.114140
5.172500e+09 -23.648396 100.614233 15.685616
5.172750e+09 -23.615404 101.065475 15.021361
5.173000e+09 -23.755678 101.048342 15.009907
5.173250e+09 -23.588853 100.857612 15.113321
5.173500e+09 -23.582083 100.670932 15.157211
5.173750e+09 -23.592243 100.602509 15.333832
5.174000e+09 -23.654726 100.986829 14.807179
5.174250e+09 -23.698743 100.600099 15.067094
5.174500e+09 -23.761019 100.454731 15.139675
5.174750e+09 -23.809530 100.606969 15.032170
5.175000e+09 -23.723287 100.465387 15.343619
5.175250e+09 -23.617580 100.912881 14.778394
5.175500e+09 -23.754196 100.543724 14.646066
5.175750e+09 -23.787461 100.402747 14.859106
5.176000e+09 -23.768436 100.741171 14.649919
5.176250e+09 -23.584859 100.723132 14.595256
5.176500e+09 -23.548002 100.890423 14.197454
5.176750e+09 -23.730627 100.835384 13.993416
5.177000e+09 -23.814361 100.563956 13.969532
5.177250e+09 -23.651735 100.827269 13.817968
5.177500e+09 -23.729080 100.840010 13.740974
5.177750e+09 -23.808538 100.483879 13.869753
5.178000e+09 -23.605665 100.727881 13.825378
5.178250e+09 -23.742417 100.733317 13.661763
5.178500e+09 -23.798723 100.712653 13.400801
5.178750e+09 -23.648284 100.469814 13.743284
5.179000e+09 -23.739810 100.243869 13.984304
5.179250e+09 -23.726970 100.148558 14.222178
5.179500e+09 -23.550807 100.379262 14.266644
5.179750e+09 -23.725815 100.495695 14.042110
5.180000e+09 -23.805798 100.260004 13.933970
5.180250e+09 -23.819435 100.342195 13.750392
5.180500e+09 -23.837706 100.154010 13.830120
5.180750e+09 -23.842186 100.210085 13.784062
5.181000e+09 -23.631358 100.516500 13.579073
5.181250e+09 -23.663000 100.652831 13.288856
5.181500e+09 -23.799720 100.409831 13.192298
5.181750e+09 -23.739818 100.566031 12.985254
5.182000e+09 -23.814606 100.131003 13.032515
5.182250e+09 -23.606799 100.302879 13.288409
5.182500e+09 -23.763128 100.321932 13.173506
5.182750e+09 -23.838981 100.194728 13.089859
5.183000e+09 -23.729009 100.459972 12.862114
5.183250e+09 -23.585281 100.367679 13.047324
5.183500e+09 -23.647452 100.037950 13.376763
5.183750e+09 -23.723623 99.895621 13.520756
5.184000e+09 -23.726364 99.824738 13.659725
5.184250e+09 -23.670385 100.315785 13.174628
5.184500e+09 -23.736361 100.400220 12.751190
5.184750e+09 -23.829500 100.054351 12.750584
5.185000e+09 -23.829655 100.174030 12.635197
5.185250e+09 -23.848018 100.141435 12.476315
5.185500e+09 -23.667683 100.158062 12.670135
5.185750e+09 -23.579974 100.212364 12.628912
5.186000e+09 -23.561809 100.219296 12.547855
5.186250e+09 -23.563969 100.159905 12.646025
5.186500e+09 -23.777914 100.058944 12.366749
5.186750e+09 -23.685134 100.241009 12.126353
5.187000e+09 -23.726602 99.862196 12.454153
5.187250e+09 -23.614040 99.989386 12.557331
5.187500e+09 -23.691374 100.193011 12.351210
5.187750e+09 -23.760307 99.811550 12.325800
5.188000e+09 -23.775908 100.050362 12.279296
5.188250e+09 -23.807559 100.141064 12.029442
5.188500e+09 -23.848531 100.081924 11.855541
5.188750e+09 -23.883913 99.734650 11.954872
5.189000e+09 -23.808677 100.022161 12.044916
5.189250e+09 -23.834447 99.692025 12.034483
5.189500e+09 -23.797672 99.557881 12.339919
5.189750e+09 -23.841699 99.612187 12.270043
5.190000e+09 -23.818222 99.501731 12.419312
5.190250e+09 -23.773407 99.911170 12.124947
5.190500e+09 -23.787532 99.603500 12.334212
5.190750e+09 -23.852154 99.514711 12.186082
5.191000e+09 -23.811897 99.411783 12.349654
5.191250e+09 -23.813349 99.799261 11.889934
5.191500e+09 -23.766986 99.610268 12.099072
5.191750e+09 -23.757842 99.901405 11.818338
5.192000e+09 -23.672442 99.808448 11.694251
5.192250e+09 -23.642192 99.775510 11.501240
5.192500e+09 -23.637043 99.669115 11.606475
5.192750e+09 -23.664632 99.850633 11.415147
5.193000e+09 -23.677157 99.889638 11.148976
5.193250e+09 -23.796828 99.846968 11.087022
5.193500e+09 -23.853164 99.850971 10.968739
5.193750e+09 -23.861088 99.501037 11.181125
5.194000e+09 -23.752003 99.402221 11.501990
5.194250e+09 -23.756566 99.305552 11.633361
5.194500e+09 -23.694260 99.596154 11.319924
5.194750e+09 -23.830731 99.649334 11.145894
5.195000e+09 -23.740101 99.654843 11.012078
5.195250e+09 -23.867817 99.391187 11.098262
5.195500e+09 -23.882490 99.230464 11.337758
5.195750e+09 -23.865698 99.539741 10.837526
5.196000e+09 -23.777947 99.603920 10.727323
5.196250e+09 -23.737848 99.675628 10.713224
5.196500e+09 -23.883071 99.456439 10.600866
5.196750e+09 -23.855352 99.610735 10.660747
5.197000e+09 -23.775487 99.651949 10.461349
5.197250e+09 -23.739068 99.461263 10.473342
5.197500e+09 -23.726174 99.537595 10.417382
5.197750e+09 -23.724051 99.361818 10.671183
5.198000e+09 -23.791216 99.544597 10.398530
5.198250e+09 -23.862050 99.608975 10.170961
5.198500e+09 -23.925219 99.544487 10.074650
5.198750e+09 -23.824495 99.483901 10.149667
5.199000e+09 -23.836403 99.557240 10.077111
5.199250e+09 -23.809933 99.245000 10.194119
5.199500e+09 -23.935792 99.128900 10.147770
5.199750e+09 -23.932308 98.958938 10.481717
5.200000e+09 -23.927402 99.255299 10.288471
5.200250e+09 -23.978334 99.029727 10.229043
5.200500e+09 -23.927306 99.307686 10.149126
5.200750e+09 -23.999192 99.226598 9.673382
5.201000e+09 -23.869726 99.230595 10.084649
5.201250e+09 -23.915462 99.339707 9.896135
5.201500e+09 -23.984045 99.298819 9.689050
5.201750e+09 -23.953270 98.975917 10.040817
5.202000e+09 -24.000994 98.971026 9.924549
5.202250e+09 -23.886303 99.161906 9.789651
5.202500e+09 -23.921075 98.914532 9.985556
5.202750e+09 -23.984528 98.802813 10.161236
5.203000e+09 -24.023993 98.903366 9.978838
5.203250e+09 -24.009284 99.045397 9.891663
5.203500e+09 -23.913867 98.932427 9.902269
5.203750e+09 -24.001483 99.011629 9.599654
5.204000e+09 -23.947938 99.156267 9.711864
5.204250e+09 -24.005772 98.854368 9.511871
5.204500e+09 -24.026326 98.731494 9.694266
5.204750e+09 -24.013395 98.640885 9.886927
5.205000e+09 -23.981988 98.978035 9.693092
5.205250e+09 -23.906100 98.918679 9.646353
5.205500e+09 -23.871480 98.834244 9.602258
5.205750e+09 -23.871205 98.853506 9.425687
5.206000e+09 -23.926144 98.657101 9.739942
5.206250e+09 -23.955359 98.947683 9.388544
5.206500e+09 -24.041500 98.836241 9.338156
5.206750e+09 -23.953881 98.772668 9.384368
5.207000e+09 -23.913376 98.707448 9.402363
5.207250e+09 -23.891733 98.772612 9.378602
5.207500e+09 -24.028294 98.782490 9.057688
5.207750e+09 -24.086046 98.622939 9.162133
5.208000e+09 -24.021299 98.526449 9.363565
5.208250e+09 -24.065678 98.451582 9.369845
5.208500e+09 -24.006401 98.795120 9.043666
5.208750e+09 -24.013262 98.927524 9.194318
5.209000e+09 -24.050807 98.966817 8.789000
5.209250e+09 -24.022733 98.640153 8.744589
5.209500e+09 -23.964049 98.714516 8.921972
5.209750e+09 -24.038527 98.802934 8.580320
5.210000e+09 -24.070972 98.878814 8.474599
5.210250e+09 -24.007983 98.851270 8.501423
5.210500e+09 -23.978491 98.634301 8.523991
5.210750e+09 -24.093097 98.618086 8.280279
5.211000e+09 -24.149927 98.429613 8.597702
5.211250e+09 -24.153882 98.565584 8.413050
5.211500e+09 -24.170592 98.626897 8.323186
5.211750e+09 -24.190290 98.532900 8.260539
5.212000e+09 -24.198252 98.539242 8.289355
5.212250e+09 -24.128288 98.687102 8.236625
5.212500e+09 -24.060350 98.678925 8.074123
5.212750e+09 -24.125050 98.607589 8.045182
5.213000e+09 -24.167840 98.629259 7.978214
5.213250e+09 -24.125216 98.675469 8.083049
5.213500e+09 -24.183210 98.504680 7.836258
5.213750e+09 -24.123033 98.306723 8.118677
5.214000e+09 -24.192952 98.216262 8.039953
5.214250e+09 -24.119122 98.437833 8.045671
5.214500e+09 -24.175211 98.159595 8.056008
5.214750e+09 -24.130172 98.420376 7.929161
5.215000e+09 -24.205128 98.258928 7.981406
5.215250e+09 -24.154921 98.151510 8.010969
5.215500e+09 -24.149261 98.397526 7.918257
5.215750e+09 -24.208402 98.136204 7.862824
5.216000e+09 -24.243487 98.195329 7.646980
5.216250e+09 -24.176724 98.126830 7.871256
5.216500e+09 -24.143371 98.302310 7.728754
5.216750e+09 -24.205608 98.411232 7.613550
5.217000e+09 -24.240381 98.431800 7.463372
5.217250e+09 -24.197019 98.348585 7.419592
5.217500e+09 -24.277004 98.140580 7.415013
5.217750e+09 -24.238155 98.316729 7.488556
5.218000e+09 -24.203253 98.340693 7.273794
5.218250e+09 -24.186858 98.201491 7.328783
5.218500e+09 -24.243710 98.288123 7.150980
5.218750e+09 -24.228615 98.115068 7.256913
5.219000e+09 -24.222188 98.245203 7.122390
5.219250e+09 -24.294312 98.213277 7.110073
5.219500e+09 -24.360042 98.064077 6.902625
5.219750e+09 -24.385911 97.790167 7.143211
5.220000e+09 -24.352120 97.884226 6.955349
5.220250e+09 -24.292333 97.864962 7.132732
5.220500e+09 -24.272874 98.126568 7.127113
5.220750e+09 -24.271510 98.080867 6.999323
5.221000e+09 -24.261067 98.110538 7.009512
5.221250e+09 -24.320368 97.829135 7.172696
5.221500e+09 -24.274631 97.870978 7.031985
5.221750e+09 -24.284748 98.076952 6.735658
5.222000e+09 -24.283320 98.031598 6.689307
5.222250e+09 -24.367776 97.987530 6.559630
5.222500e+09 -24.344137 97.923846 6.742616
5.222750e+09 -24.375420 97.552557 6.913392
5.223000e+09 -24.321421 97.934911 6.699266
5.223250e+09 -24.389203 97.976541 6.423958
5.223500e+09 -24.466022 97.857646 6.034193
5.223750e+09 -24.431273 97.617077 6.299034
5.224000e+09 -24.468546 97.472541 6.464922
5.224250e+09 -24.401864 97.392542 6.744916
5.224500e+09 -24.437446 97.353410 6.692649
5.224750e+09 -24.509986 97.586333 6.773105
5.225000e+09 -24.467303 97.757602 6.617117
5.225250e+09 -24.414232 97.849418 6.523607
5.225500e+09 -24.438795 97.866974 6.305975
5.225750e+09 -24.525136 97.438583 6.242124
5.226000e+09 -24.472066 97.767801 6.283200
5.226250e+09 -24.440256 97.799513 6.421656
5.226500e+09 -24.497110 97.348206 6.654133
5.226750e+09 -24.462589 97.298569 6.547079
5.227000e+09 -24.477534 97.554134 6.328514
5.227250e+09 -24.488472 97.737162 6.013483
5.227500e+09 -24.480828 97.771423 5.951929
5.227750e+09 -24.494864 97.751552 6.007270
5.228000e+09 -24.503267 97.684713 5.904592
5.228250e+09 -24.608739 97.509725 5.725815
5.228500e+09 -24.554306 97.629685 5.738278
5.228750e+09 -24.528869 97.242985 5.741396
5.229000e+09 -24.532408 97.133302 5.939444
5.229250e+09 -24.534983 97.166299 5.847024
5.229500e+09 -24.551811 97.318315 5.864724
5.229750e+09 -24.550648 97.320521 5.805935
5.230000e+09 -24.566648 97.114868 5.677787
5.230250e+09 -24.621962 97.438039 5.791208
5.230500e+09 -24.662845 97.522639 5.409909
5.230750e+09 -24.647365 97.033918 5.582774
5.231000e+09 -24.718727 97.221972 5.642202
5.231250e+09 -24.651720 97.252454 5.569474
5.231500e+09 -24.658130 96.890203 5.739897
5.231750e+09 -24.663983 96.801723 5.713296
5.232000e+09 -24.666440 96.799967 5.990732
5.232250e+09 -24.710049 96.739180 5.914367
5.232500e+09 -24.762563 96.733726 5.838805
5.232750e+09 -24.728741 97.061260 5.634545
5.233000e+09 -24.794050 97.108375 5.427423
5.233250e+09 -24.723379 96.989151 5.555949
5.233500e+09 -24.778469 97.166271 5.556458
5.233750e+09 -24.790799 97.273157 5.193708
5.234000e+09 -24.789021 97.226199 5.036156
5.234250e+09 -24.788422 97.142817 5.163684
5.234500e+09 -24.760673 97.034209 5.056575
5.234750e+09 -24.822765 96.666001 5.204271
5.235000e+09 -24.842112 96.520711 5.255807
5.235250e+09 -24.886065 96.934825 5.277608
5.235500e+09 -24.816444 96.725840 5.125659
5.235750e+09 -24.915946 96.778011 5.209970
5.236000e+09 -24.876798 96.806764 4.858701
5.236250e+09 -24.897494 96.513332 5.446143
5.236500e+09 -24.929121 96.420091 5.360075
5.236750e+09 -24.957612 96.370950 5.218584
5.237000e+09 -24.947337 96.644472 5.149285
5.237250e+09 -24.992868 96.793719 4.870873
5.237500e+09 -24.953089 96.774872 4.708731
5.237750e+09 -24.993758 96.627691 5.077927
5.238000e+09 -25.023339 96.793157 4.945508
5.238250e+09 -24.966337 96.666287 4.610504
5.238500e+09 -24.940306 96.368819 4.667079
5.238750e+09 -25.066625 96.578299 4.760317
5.239000e+09 -25.083329 96.665957 4.854994
5.239250e+09 -25.027669 96.667177 4.686461
5.239500e+09 -25.060694 96.324041 4.778207
5.239750e+09 -25.097661 96.196971 4.713446
5.240000e+09 -25.059519 96.213498 4.706353
5.240250e+09 -25.083412 96.025023 4.937070
5.240500e+09 -25.073989 96.031190 4.895689
5.240750e+09 -25.105726 95.962661 4.964141
5.241000e+09 -25.190490 96.155018 4.873072
5.241250e+09 -25.221974 96.097231 5.011465
5.241500e+09 -25.187374 95.936460 5.193128
5.241750e+09 -25.163128 96.100874 4.749556
5.242000e+09 -25.214410 96.292123 4.362875
5.242250e+09 -25.190023 95.976236 4.671157
5.242500e+09 -25.218679 95.805976 4.594146
5.242750e+09 -25.227283 95.977305 4.464772
5.243000e+09 -25.249137 96.128051 4.264498
5.243250e+09 -25.295349 96.017155 4.407431
5.243500e+09 -25.315775 95.909384 4.825005
5.243750e+09 -25.337594 95.867893 4.820393
5.244000e+09 -25.292464 95.904906 4.533209
5.244250e+09 -25.346929 95.810473 4.537613
5.244500e+09 -25.405008 95.968457 4.679613
5.244750e+09 -25.413605 96.070883 4.324796
5.245000e+09 -25.313797 95.840943 4.195662
5.245250e+09 -25.373471 95.868749 4.143090
5.245500e+09 -25.366069 95.623373 4.248052
5.245750e+09 -25.434446 95.595157 4.323453
5.246000e+09 -25.487459 95.714931 4.540340
5.246250e+09 -25.415323 95.675928 3.966164
5.246500e+09 -25.462852 95.766529 4.036600
5.246750e+09 -25.447840 95.485588 4.563028
5.247000e+09 -25.440380 95.380189 4.466932
5.247250e+09 -25.522149 95.380134 4.334401
5.247500e+09 -25.504008 95.486223 4.272669
5.247750e+09 -25.556647 95.374380 4.457482
5.248000e+09 -25.599531 95.634310 4.100283
5.248250e+09 -25.620576 95.713927 4.089068
5.248500e+09 -25.570427 95.641899 3.936718
5.248750e+09 -25.546682 95.315621 4.325819
5.249000e+09 -25.642386 95.386796 4.119835
5.249250e+09 -25.611399 95.149302 4.105798
5.249500e+09 -25.680741 95.420022 4.166677
5.249750e+09 -25.696599 95.444001 3.687537
5.250000e+09 -25.634899 95.399074 3.919125
5.250250e+09 -25.701975 95.246749 4.064825
5.250500e+09 -25.755693 95.351354 4.102600
5.250750e+09 -25.775194 95.398044 3.948738
5.251000e+09 -25.691685 95.169559 3.960834
5.251250e+09 -25.783567 94.999201 3.947954
5.251500e+09 -25.820779 94.793983 4.236102
5.251750e+09 -25.775614 94.849802 4.142691
5.252000e+09 -25.801790 95.065624 4.043361
5.252250e+09 -25.850306 95.218490 4.323315
5.252500e+09 -25.870608 95.006825 4.150099
5.252750e+09 -25.918438 94.751278 4.195558
5.253000e+09 -25.859898 94.860852 3.994457
5.253250e+09 -25.920269 94.616697 4.158001
5.253500e+09 -25.906780 94.968380 4.063696
5.253750e+09 -25.909466 94.697751 4.212194
5.254000e+09 -25.911778 94.693340 4.027924
5.254250e+09 -25.978083 94.872575 3.998603
5.254500e+09 -26.024305 94.741964 4.190907
5.254750e+09 -26.027136 94.936173 3.998743
5.255000e+09 -26.049287 94.944052 3.848416
5.255250e+09 -26.102437 94.426742 3.905862
5.255500e+09 -26.117056 94.229700 4.170953
5.255750e+09 -26.052807 94.662987 4.129023
5.256000e+09 -26.128959 94.283507 4.431994
5.256250e+09 -26.109574 94.560876 3.994104
5.256500e+09 -26.197170 94.425318 3.864405
5.256750e+09 -26.165634 94.450411 4.095019
5.257000e+09 -26.154590 94.400527 3.916686
5.257250e+09 -26.249800 94.080780 4.099167
5.257500e+09 -26.199714 94.442210 4.073369
5.257750e+09 -26.285913 94.055514 3.907779
5.258000e+09 -26.239200 94.400387 4.008836
5.258250e+09 -26.289916 94.440375 3.879325
5.258500e+09 -26.384800 93.986790 4.172421
5.258750e+09 -26.303796 94.323278 4.216929
5.259000e+09 -26.351185 94.372218 4.160089
5.259250e+09 -26.437368 94.014337 3.640869
5.259500e+09 -26.443751 93.878592 3.970557
5.259750e+09 -26.417405 94.130146 4.277343
5.260000e+09 -26.424189 93.973090 4.140993
5.260250e+09 -26.445477 93.988865 4.250767
5.260500e+09 -26.461379 94.094996 4.105370
5.260750e+09 -26.537539 93.655632 4.348688
5.261000e+09 -26.543113 93.709426 4.001522
5.261250e+09 -26.600976 93.493425 4.385194
5.261500e+09 -26.619589 93.428702 4.353883
5.261750e+09 -26.554562 93.575297 4.651194
5.262000e+09 -26.620146 93.374174 4.480138
5.262250e+09 -26.608374 93.716564 4.566331
5.262500e+09 -26.623815 93.804159 4.551300
5.262750e+09 -26.683589 93.549402 3.895901
5.263000e+09 -26.680178 93.636253 4.302352
5.263250e+09 -26.718904 93.605727 4.365969
5.263500e+09 -26.739943 93.636694 4.372775
5.263750e+09 -26.739230 93.428555 4.539204
5.264000e+09 -26.805782 93.089908 4.488293
5.264250e+09 -26.806300 93.376765 4.649039
5.264500e+09 -26.827810 93.123488 4.501741
5.264750e+09 -26.913659 93.047871 4.153954
5.265000e+09 -26.962908 92.928943 4.364937
5.265250e+09 -26.926382 93.185358 4.472409
5.265500e+09 -26.886170 92.992567 4.575630
5.265750e+09 -26.967582 93.009292 4.762899
5.266000e+09 -26.961864 92.892306 4.756149
5.266250e+09 -26.998447 93.034065 4.982827
5.266500e+09 -27.059182 93.149153 4.693955
5.266750e+09 -27.051340 92.858868 4.798853
5.267000e+09 -27.047318 92.697736 5.042270
5.267250e+09 -27.155040 92.600441 4.644926
5.267500e+09 -27.134878 92.839907 4.961093
5.267750e+09 -27.222508 92.624531 4.940920
5.268000e+09 -27.184150 92.574476 4.902573
5.268250e+09 -27.217920 92.692325 4.731067
5.268500e+09 -27.218250 92.506952 4.632467
5.268750e+09 -27.309487 92.345102 5.010449
5.269000e+09 -27.292674 92.524587 5.122909
5.269250e+09 -27.366524 92.370090 4.982795
5.269500e+09 -27.350628 92.583466 5.035207
5.269750e+09 -27.352541 92.272818 5.119577
5.270000e+09 -27.398786 92.323901 5.177411
5.270250e+09 -27.417481 92.434077 5.764781
5.270500e+09 -27.427481 92.431343 5.176941
5.270750e+09 -27.517564 92.093002 5.520439
5.271000e+09 -27.506507 92.194491 5.152749
5.271250e+09 -27.521160 91.991286 5.114765
5.271500e+09 -27.605005 91.834689 5.695216
5.271750e+09 -27.620295 91.704768 5.992700
5.272000e+09 -27.603270 91.631226 6.067242
5.272250e+09 -27.677562 91.574430 6.294166
5.272500e+09 -27.701453 91.710294 5.705045
5.272750e+09 -27.680099 91.707356 5.335901
5.273000e+09 -27.737111 91.536661 5.992724
5.273250e+09 -27.726477 91.454537 6.472279
5.273500e+09 -27.716274 91.432067 6.269550
5.273750e+09 -27.732846 91.778806 6.284927
5.274000e+09 -27.790448 91.754372 6.098122
5.274250e+09 -27.964972 91.426660 5.933084
5.274500e+09 -27.887029 91.367130 6.355806
5.274750e+09 -27.933788 91.127127 6.736660
5.275000e+09 -27.854913 91.459411 7.043893
5.275250e+09 -27.954453 91.237001 6.909098
5.275500e+09 -27.975410 91.006300 6.960344
5.275750e+09 -27.956944 90.962061 7.081422
5.276000e+09 -28.014944 91.292067 7.026794
5.276250e+09 -28.067363 91.119000 7.207301
5.276500e+09 -28.127495 90.858345 7.969439
5.276750e+09 -28.234016 90.777407 7.502978
5.277000e+09 -28.118736 90.803539 6.885608
5.277250e+09 -28.183481 90.946149 7.825731
5.277500e+09 -28.165870 90.718735 7.649414
5.277750e+09 -28.351842 90.721626 7.709065
5.278000e+09 -28.235348 90.610558 7.854573
5.278250e+09 -28.300635 90.631859 7.857196
5.278500e+09 -28.334330 90.447486 8.391917
5.278750e+09 -28.314580 90.505057 8.258182
5.279000e+09 -28.354669 90.296955 8.571209
5.279250e+09 -28.554888 90.455624 7.824673
5.279500e+09 -28.420793 90.323555 8.152886
5.279750e+09 -28.537229 90.567489 8.504660
5.280000e+09 -28.453526 90.240617 8.593995
5.280250e+09 -28.596989 90.528524 9.101318
5.280500e+09 -28.697622 90.170492 8.848370
5.280750e+09 -28.603832 90.160094 8.616399
5.281000e+09 -28.726633 90.175063 9.038521
5.281250e+09 -28.623565 90.105782 8.830958
5.281500e+09 -28.830616 89.925101 9.151173
5.281750e+09 -28.809780 90.202363 9.376347
5.282000e+09 -28.860476 90.137581 9.615715
5.282250e+09 -28.906574 90.126937 9.362670
5.282500e+09 -28.885701 89.741461 9.840882
5.282750e+09 -28.849999 89.648658 9.277647
5.283000e+09 -28.902477 89.538978 9.836548
5.283250e+09 -28.983466 89.420556 10.689005
5.283500e+09 -29.053124 89.680336 10.158074
5.283750e+09 -28.905573 89.492398 10.420064
5.284000e+09 -28.925526 89.367202 10.278301
5.284250e+09 -29.049223 89.358027 10.260384
5.284500e+09 -29.015504 89.287461 10.644872
5.284750e+09 -29.147063 89.217065 10.744746
5.285000e+09 -29.161451 89.131095 11.612360
5.285250e+09 -29.137341 89.115491 10.765928
5.285500e+09 -29.313414 88.949098 11.744982
5.285750e+09 -29.189882 88.926722 12.143995
5.286000e+09 -29.381335 89.133238 11.580871
5.286250e+09 -29.460772 89.100504 12.045894
5.286500e+09 -29.369317 88.988395 11.893425
5.286750e+09 -29.447116 88.838127 12.138753
5.287000e+09 -29.443847 88.970549 12.138599
5.287250e+09 -29.421539 88.809636 11.965112
5.287500e+09 -29.572485 88.888741 11.435720
5.287750e+09 -29.656390 88.837183 11.998538
5.288000e+09 -29.581157 88.811570 12.619626
5.288250e+09 -29.593763 88.683495 12.253733
5.288500e+09 -29.746354 88.554163 11.901100
5.288750e+09 -29.815379 88.501764 12.581778
5.289000e+09 -29.728045 88.364628 13.560706
5.289250e+09 -29.794085 88.597105 13.613246
5.289500e+09 -29.815067 88.266745 14.480086
5.289750e+09 -29.851171 88.479295 14.276116
5.290000e+09 -29.715577 88.205642 13.931346
5.290250e+09 -29.696222 88.095230 14.466031
5.290500e+09 -29.832938 87.936446 15.612849
5.290750e+09 -29.801885 87.848449 15.243718
5.291000e+09 -30.086481 88.011070 14.790166
5.291250e+09 -30.067459 88.211467 15.065794
5.291500e+09 -29.969771 87.846113 15.978332
5.291750e+09 -30.154816 87.643023 16.677150
5.292000e+09 -30.160904 87.580174 16.657452
5.292250e+09 -30.339744 87.585943 16.003627
5.292500e+09 -30.123353 87.572180 16.193331
5.292750e+09 -30.248202 87.756614 16.162038
5.293000e+09 -30.278651 87.779974 16.247983
5.293250e+09 -30.179222 87.552574 16.532602
5.293500e+09 -30.150496 87.355326 17.274039
5.293750e+09 -30.366686 87.447153 17.161911
5.294000e+09 -30.567050 87.325917 16.908118
5.294250e+09 -30.341114 87.314250 17.146778
5.294500e+09 -30.204965 87.235770 17.724427
5.294750e+09 -30.386879 87.358151 18.571579
5.295000e+09 -30.500479 87.329537 18.368833
5.295250e+09 -30.620060 87.334531 17.851125
5.295500e+09 -30.607423 87.146113 18.347912
5.295750e+09 -30.387162 87.038566 18.700735
5.296000e+09 -30.721218 86.767471 19.323158
5.296250e+09 -30.703171 87.120529 19.491902
5.296500e+09 -30.880872 86.740915 19.316558
5.296750e+09 -30.787232 86.875889 19.981307
5.297000e+09 -30.855518 86.877569 19.579649
5.297250e+09 -30.900277 86.600271 21.223886
5.297500e+09 -30.957509 86.674454 20.708230
5.297750e+09 -30.803346 86.512150 21.138540
5.298000e+09 -30.887360 86.405031 22.162454
5.298250e+09 -31.169834 86.367212 20.946944
5.298500e+09 -31.149681 86.573133 21.150839
5.298750e+09 -30.820445 86.355590 22.401080
5.299000e+09 -31.080229 86.325537 21.732345
5.299250e+09 -31.231179 86.157307 22.694671
5.299500e+09 -31.123334 86.249526 22.961490
5.299750e+09 -31.189104 86.335225 22.390781
5.300000e+09 -31.071978 86.162565 23.581669
5.300250e+09 -31.321553 85.903230 23.456715
5.300500e+09 -31.349619 86.112128 23.710362
5.300750e+09 -31.270474 85.910515 25.376198
5.301000e+09 -31.117968 85.801290 24.585237
5.301250e+09 -31.049725 85.714982 25.287066
5.301500e+09 -31.177587 85.550121 24.714767
5.301750e+09 -31.531754 85.558168 25.438804
5.302000e+09 -31.360385 85.441302 25.832243
5.302250e+09 -31.342674 85.399150 26.266618
5.302500e+09 -31.302676 85.500706 26.464774
5.302750e+09 -31.194274 85.553972 26.949838
5.303000e+09 -31.364849 85.602515 27.751569
5.303250e+09 -31.448504 85.418221 27.543357
5.303500e+09 -31.397311 85.463315 27.959266
5.303750e+09 -31.447130 85.622603 27.658897
5.304000e+09 -31.642081 85.331541 28.820997
5.304250e+09 -31.786121 85.127450 29.181278
5.304500e+09 -31.669020 85.062846 29.371762
5.304750e+09 -31.596362 85.357527 29.907242
5.305000e+09 -31.961056 85.115387 29.114736
5.305250e+09 -31.986699 85.136932 28.700352
5.305500e+09 -31.868109 85.163007 30.458785
5.305750e+09 -31.713424 85.051153 32.061907
5.306000e+09 -31.758258 84.892971 31.223574
5.306250e+09 -31.622166 84.879017 33.345934
5.306500e+09 -31.823643 84.861698 32.990358
5.306750e+09 -31.801785 84.736633 33.738568
5.307000e+09 -31.697475 84.705291 32.980167
5.307250e+09 -31.656459 84.640078 33.760597
5.307500e+09 -31.743059 84.653073 34.744034
5.307750e+09 -31.801487 84.811598 34.118885
5.308000e+09 -31.972934 84.587809 35.016327
5.308250e+09 -31.892189 84.717998 35.171480
5.308500e+09 -32.268696 84.408345 35.229140
5.308750e+09 -32.264792 84.510211 34.709934
5.309000e+09 -32.388427 84.262214 36.320805
5.309250e+09 -32.380030 84.419410 35.103288
5.309500e+09 -31.963362 84.378077 37.271972
5.309750e+09 -31.978058 84.333253 37.446670
5.310000e+09 -32.089378 84.292761 37.831206
5.310250e+09 -32.078734 84.160666 36.601685
5.310500e+09 -32.333882 84.080194 37.709378
5.310750e+09 -32.117121 84.220670 39.257322
5.311000e+09 -32.240191 84.121908 39.743842
5.311250e+09 -32.470138 83.992130 38.540766
5.311500e+09 -32.337738 84.313064 38.996054
5.311750e+09 -32.162486 84.090864 39.136466
5.312000e+09 -32.171118 83.963151 39.658511
5.312250e+09 -32.420839 83.789406 40.570728
5.312500e+09 -32.602443 83.750490 40.389154
5.312750e+09 -32.579176 83.643431 42.793165
5.313000e+09 -32.606733 83.807531 41.482254
5.313250e+09 -32.446405 83.600151 41.381910
5.313500e+09 -32.433028 83.900672 41.136350
5.313750e+09 -32.314840 83.927503 42.338803
5.314000e+09 -32.282325 83.669229 42.679332
5.314250e+09 -32.004416 83.920068 43.647504
5.314500e+09 -32.497307 83.531221 45.489044
5.314750e+09 -32.592092 83.498363 46.149080
5.315000e+09 -32.417569 83.703093 45.624314
5.315250e+09 -32.131668 83.717523 45.277875
5.315500e+09 -32.351123 83.657863 45.890680
5.315750e+09 -32.338106 83.591899 47.298021
5.316000e+09 -32.691340 83.345133 47.300777
5.316250e+09 -32.376988 83.546614 47.416890
5.316500e+09 -32.264769 83.562421 47.194157
5.316750e+09 -32.179551 83.551115 46.271914
5.317000e+09 -32.056764 83.567021 47.553015
5.317250e+09 -32.137021 83.359060 48.203725
5.317500e+09 -32.214241 83.571148 48.884967
5.317750e+09 -32.260789 83.404409 47.527817
5.318000e+09 -32.004549 83.413277 51.009715
5.318250e+09 -32.171914 83.259009 50.823230
5.318500e+09 -32.378877 83.414927 50.732137
5.318750e+09 -32.364138 83.401835 51.531802
5.319000e+09 -32.670635 83.125330 53.014354
5.319250e+09 -32.762817 83.124847 52.464546
5.319500e+09 -32.414367 83.209082 53.004924
5.319750e+09 -32.325873 83.307076 52.918436
5.320000e+09 -31.982279 83.348672 53.999053
5.320250e+09 -32.706427 83.003037 54.052185
5.320500e+09 -32.428677 82.970797 53.610294
5.320750e+09 -32.057575 83.241422 55.088913
5.321000e+09 -32.297518 83.194102 55.904428
5.321250e+09 -32.350364 82.961555 55.855612
5.321500e+09 -32.267862 83.341411 55.523215
5.321750e+09 -32.256383 83.113308 54.386920
5.322000e+09 -32.217134 83.394055 55.464252
5.322250e+09 -32.586372 83.068632 55.458104
5.322500e+09 -32.836212 82.971887 55.884502
5.322750e+09 -32.732337 82.915444 58.173782
5.323000e+09 -32.370664 82.885387 58.079107
5.323250e+09 -32.408382 83.062613 59.137667
5.323500e+09 -32.232809 83.136959 59.000211
5.323750e+09 -32.153362 82.982211 59.360656
5.324000e+09 -32.085262 83.164648 58.634943
5.324250e+09 -31.936578 83.122384 58.325531
5.324500e+09 -31.995858 82.923536 59.503000
5.324750e+09 -32.005312 83.238466 59.345402
5.325000e+09 -32.647093 82.817889 60.480648
5.325250e+09 -32.808457 82.785463 60.057735
5.325500e+09 -32.358868 82.982301 62.302729
5.325750e+09 -32.310259 83.048403 61.564647
5.326000e+09 -32.534426 83.001246 60.516200
5.326250e+09 -32.199845 82.977673 63.365986
5.326500e+09 -32.546209 82.771437 64.125645
5.326750e+09 -32.127352 82.935950 64.321220
5.327000e+09 -32.152824 83.155270 62.681993
5.327250e+09 -32.390430 83.043368 61.860106
5.327500e+09 -32.274736 83.030275 64.221809
5.327750e+09 -31.921002 83.178347 65.112269
5.328000e+09 -31.977130 83.033870 66.324702
5.328250e+09 -32.186622 82.845518 67.520339
5.328500e+09 -32.206578 83.053002 66.022406
5.328750e+09 -32.095730 82.858188 67.481130
5.329000e+09 -32.051813 82.677391 66.834546
5.329250e+09 -32.130600 82.882917 68.635346
5.329500e+09 -32.253227 82.890218 66.410956
5.329750e+09 -31.997855 82.904456 67.717872
5.330000e+09 -31.731781 82.944532 67.580717
5.330250e+09 -31.829506 83.170244 66.708358
5.330500e+09 -32.128293 82.967636 66.693251
5.330750e+09 -31.781681 83.134443 67.963635
5.331000e+09 -32.144264 82.843231 67.661172
5.331250e+09 -32.153489 82.993492 66.999009
5.331500e+09 -31.750168 83.213069 68.576258
5.331750e+09 -31.763775 83.044038 68.707543
5.332000e+09 -32.056686 82.936825 68.133872
5.332250e+09 -32.002665 83.089061 70.352555
5.332500e+09 -32.392851 82.809112 69.537611
5.332750e+09 -31.825562 82.973521 71.001668
5.333000e+09 -32.040958 82.949995 69.749649
5.333250e+09 -31.819597 83.019595 72.242748
5.333500e+09 -32.078051 82.835123 72.840542
5.333750e+09 -31.614383 83.081659 72.435649
5.334000e+09 -32.073157 82.815474 71.350807
5.334250e+09 -31.802887 83.112034 71.143206
5.334500e+09 -32.077602 82.839822 72.640116
5.334750e+09 -31.692538 82.736687 72.929362
5.335000e+09 -31.681085 83.078922 71.604359
5.335250e+09 -31.616547 83.031679 74.386913
5.335500e+09 -31.645565 83.048609 72.548937
5.335750e+09 -31.331553 82.988417 73.174080
5.336000e+09 -31.682478 82.982401 75.129112
5.336250e+09 -31.832685 82.877986 75.541645
5.336500e+09 -31.742827 83.030018 76.281557
5.336750e+09 -31.337568 83.044722 76.246185
5.337000e+09 -31.175175 82.993112 75.384487
5.337250e+09 -30.947446 83.270253 75.956082
5.337500e+09 -31.008145 83.295810 75.617040
5.337750e+09 -30.982494 83.108457 75.380293
5.338000e+09 -31.250831 83.262260 76.661179
5.338250e+09 -31.123463 83.369830 77.333730
5.338500e+09 -31.410746 83.200312 75.963017
5.338750e+09 -31.681174 82.836243 77.486717
5.339000e+09 -30.944474 83.080775 77.819189
5.339250e+09 -31.028479 83.245817 77.074122
5.339500e+09 -30.662802 83.332480 77.931007
5.339750e+09 -31.253564 83.111027 77.537681
5.340000e+09 -31.315499 83.180553 79.477668
5.340250e+09 -31.199394 83.233778 80.018222
5.340500e+09 -30.946922 83.074179 79.295844
5.340750e+09 -30.725190 83.077335 79.642603
5.341000e+09 -30.720994 83.250101 79.858190
5.341250e+09 -31.294253 83.141093 80.204450
5.341500e+09 -30.898566 83.488477 79.438459
5.341750e+09 -31.464106 83.005862 79.756206
5.342000e+09 -30.937967 83.416975 79.613400
5.342250e+09 -30.628401 83.392562 80.833748
5.342500e+09 -30.460986 83.280744 80.830495
5.342750e+09 -30.383229 83.372588 81.230922
5.343000e+09 -30.502815 83.398419 80.459054
5.343250e+09 -30.564177 83.627431 79.665067
5.343500e+09 -30.506314 83.372752 80.739813
5.343750e+09 -30.381779 83.476543 81.598112
5.344000e+09 -30.498818 83.287364 81.536103
5.344250e+09 -30.695601 83.440132 83.148423
5.344500e+09 -31.152427 83.176100 82.824179
5.344750e+09 -31.203195 83.157380 81.210215
5.345000e+09 -31.009781 83.239228 83.393916
5.345250e+09 -30.722938 83.432327 83.042725
5.345500e+09 -30.940436 83.393551 84.305590
5.345750e+09 -30.661776 83.346938 83.136975
5.346000e+09 -30.324433 83.605616 84.836653
5.346250e+09 -30.532968 83.260670 84.609928
5.346500e+09 -30.361597 83.583457 85.518507
5.346750e+09 -30.481070 83.285235 84.572066
5.347000e+09 -30.110073 83.717015 85.006389
5.347250e+09 -30.366657 83.654599 84.386907
5.347500e+09 -30.807994 83.315506 84.773211
5.347750e+09 -30.527797 83.331135 85.024587
5.348000e+09 -30.679275 83.308134 84.843353
5.348250e+09 -30.405784 83.393137 84.570415
5.348500e+09 -30.627418 83.428055 83.787339
5.348750e+09 -30.563072 83.445449 85.901570
5.349000e+09 -30.626437 83.574797 86.302935
5.349250e+09 -31.079766 83.292161 85.677959
5.349500e+09 -30.239947 83.504319 85.336259
5.349750e+09 -30.587557 83.510376 87.046790
5.350000e+09 -30.406501 83.424015 86.658235
5.350250e+09 -30.687437 83.292571 86.605818
5.350500e+09 -30.281817 83.563292 86.239116
5.350750e+09 -30.238558 83.451895 87.132757
5.351000e+09 -30.153391 83.692774 85.612522
5.351250e+09 -30.795789 83.271113 86.337273
5.351500e+09 -30.030078 83.745756 86.294316
5.351750e+09 -30.530325 83.264612 85.855760
5.352000e+09 -30.197212 83.740125 84.992864
5.352250e+09 -30.141954 83.444293 86.231932
5.352500e+09 -29.969396 83.776485 86.981932
5.352750e+09 -29.976210 83.531583 86.449271
5.353000e+09 -29.749058 83.633196 87.679714
5.353250e+09 -29.689946 83.825124 87.797614
5.353500e+09 -30.005030 83.579229 87.290745
5.353750e+09 -29.844027 83.546806 88.407751
5.354000e+09 -29.747366 83.602531 88.290765
5.354250e+09 -30.186222 83.634947 87.025101
5.354500e+09 -30.096191 83.723108 88.771100
5.354750e+09 -30.505296 83.344195 87.653023
5.355000e+09 -30.326878 83.603546 88.958596
5.355250e+09 -30.011384 83.752284 88.836387
5.355500e+09 -29.728666 83.784614 88.241242
5.355750e+09 -29.865124 83.838330 88.067022
5.356000e+09 -29.898763 83.694168 88.042502
5.356250e+09 -29.530446 83.909109 88.843148
5.356500e+09 -29.602789 83.922816 87.797262
5.356750e+09 -29.763143 83.638200 88.585257
5.357000e+09 -30.097257 83.546937 88.736191
5.357250e+09 -30.326432 83.422640 89.183180
5.357500e+09 -30.160535 83.531308 87.424085
5.357750e+09 -30.304907 83.450331 88.177878
5.358000e+09 -30.143229 83.694089 89.196396
5.358250e+09 -30.101996 83.453525 88.426092
5.358500e+09 -29.733782 83.850791 89.249554
5.358750e+09 -29.580432 83.629153 89.459147
5.359000e+09 -29.643642 84.062698 89.832846
5.359250e+09 -29.862916 83.792622 90.581203
5.359500e+09 -29.903017 83.852107 88.956159
5.359750e+09 -29.707698 83.833340 88.597382
5.360000e+09 -29.695039 83.852344 88.906657
5.360250e+09 -30.014838 83.700470 88.219228
5.360500e+09 -30.402663 83.390102 88.618300
5.360750e+09 -29.763893 83.819168 89.448978
5.361000e+09 -29.759575 83.587924 88.790807
5.361250e+09 -29.807196 83.713268 88.092212
5.361500e+09 -29.831840 83.597952 90.371286
5.361750e+09 -30.121684 83.450286 88.628429
5.362000e+09 -29.893172 83.534394 89.659415
5.362250e+09 -29.685670 83.918211 90.013000
5.362500e+09 -29.812214 83.899738 90.697042
5.362750e+09 -29.814540 83.713020 90.644602
5.363000e+09 -29.698176 83.642033 91.532012
5.363250e+09 -29.285536 83.722629 90.977139
5.363500e+09 -29.524128 84.007145 92.540200
5.363750e+09 -29.845883 83.703514 90.716218
5.364000e+09 -29.478475 83.733952 92.049344
5.364250e+09 -29.239832 83.999805 91.019496
5.364500e+09 -29.886670 83.679036 91.620248
5.364750e+09 -29.909413 83.640117 91.919141
5.365000e+09 -30.199287 83.407817 90.183572
5.365250e+09 -30.083118 83.734608 91.826516
5.365500e+09 -29.640767 83.810494 91.693750
5.365750e+09 -29.552109 83.551477 91.296455
5.366000e+09 -30.161056 83.567308 90.629661
5.366250e+09 -29.633765 83.745884 91.741457
5.366500e+09 -29.709064 84.042001 91.273815
5.366750e+09 -30.059170 83.562410 90.842537
5.367000e+09 -29.594238 83.820707 91.450562
5.367250e+09 -29.867569 83.427244 90.136331
5.367500e+09 -29.639195 83.795989 89.217192
5.367750e+09 -29.527355 83.912294 89.467991
5.368000e+09 -29.516337 83.762886 90.668480
5.368250e+09 -29.901179 83.646911 88.750552
5.368500e+09 -29.652272 83.808621 88.718645
5.368750e+09 -29.722299 83.867589 89.018721
5.369000e+09 -29.909972 83.600014 91.186067
5.369250e+09 -29.464596 83.724958 91.137488
5.369500e+09 -29.433365 83.728860 91.380746
5.369750e+09 -29.922619 83.655917 90.699585
5.370000e+09 -29.469648 83.764688 91.216348
5.370250e+09 -29.603776 83.766032 90.142925
5.370500e+09 -29.344089 83.682258 91.696684
5.370750e+09 -29.954164 83.604597 90.822503
5.371000e+09 -29.924357 83.347786 91.278660
5.371250e+09 -29.829015 83.509379 91.157524
5.371500e+09 -29.444823 83.960981 91.693107
5.371750e+09 -29.801151 83.713479 92.372792
5.372000e+09 -29.944311 83.628904 93.011050
5.372250e+09 -29.844110 83.284270 91.853742
5.372500e+09 -29.406869 83.818372 92.754403
5.372750e+09 -29.725360 83.555289 91.413728
5.373000e+09 -29.709578 83.385725 92.400048
5.373250e+09 -29.444650 83.522359 92.458662
5.373500e+09 -29.915721 83.448725 92.435288
5.373750e+09 -29.744970 83.747436 91.719773
5.374000e+09 -29.777530 83.748819 92.529676
5.374250e+09 -30.065282 83.564261 93.648806
5.374500e+09 -30.523106 83.259806 92.204321
5.374750e+09 -29.678594 83.708476 92.290179
5.375000e+09 -30.003438 83.531571 92.777533
5.375250e+09 -30.298055 83.346624 92.589229
5.375500e+09 -30.023259 83.449102 91.560613
5.375750e+09 -29.895426 83.459042 93.029321
5.376000e+09 -29.701061 83.490786 91.865036
5.376250e+09 -30.041235 83.493903 93.487796
5.376500e+09 -30.125791 83.499609 90.561794
5.376750e+09 -30.278924 83.384821 89.769762
5.377000e+09 -29.952114 83.553658 90.437605
5.377250e+09 -30.123200 83.451458 89.756009
5.377500e+09 -30.111953 83.387958 91.680238
5.377750e+09 -29.776376 83.288060 90.224789
5.378000e+09 -29.611442 83.532138 91.959984
5.378250e+09 -29.640008 83.427374 91.625624
5.378500e+09 -29.919313 83.416241 91.783307
5.378750e+09 -29.872818 83.582357 90.721323
5.379000e+09 -30.408509 83.247682 91.049845
5.379250e+09 -30.215001 83.323451 89.127001
5.379500e+09 -29.846015 83.432756 89.222830
5.379750e+09 -29.897124 83.491098 89.854280
5.380000e+09 -30.045107 83.340616 89.012894
5.380250e+09 -29.968160 83.369769 89.304365
5.380500e+09 -30.248295 83.125738 89.466350
5.380750e+09 -29.998668 83.219290 90.451780
5.381000e+09 -30.339191 83.215248 89.184661
5.381250e+09 -30.765155 83.052057 90.330668
5.381500e+09 -30.237735 83.137144 89.224363
5.381750e+09 -30.758383 82.985541 90.850793
5.382000e+09 -30.564455 82.728941 89.540750
5.382250e+09 -30.399900 83.013564 89.741285
5.382500e+09 -30.638851 82.882651 91.232237
5.382750e+09 -31.102116 82.708119 89.301520
5.383000e+09 -30.857253 82.732067 88.143763
5.383250e+09 -30.943272 82.638832 87.752611
5.383500e+09 -31.148925 82.860169 88.800470
5.383750e+09 -30.632663 82.980174 88.492659
5.384000e+09 -30.625806 82.923178 88.313889
5.384250e+09 -31.217944 82.511275 87.658094
5.384500e+09 -30.673172 82.645797 88.811374
5.384750e+09 -31.172266 82.689331 86.655469
5.385000e+09 -31.168887 82.777873 88.823624
5.385250e+09 -30.761636 82.854168 86.656865
5.385500e+09 -30.813595 82.750977 85.579076
5.385750e+09 -30.980822 82.733053 88.076320
5.386000e+09 -31.105891 82.655459 86.949067
5.386250e+09 -31.011003 82.662336 88.271247
5.386500e+09 -31.393048 82.399965 89.140774
5.386750e+09 -30.924870 82.540540 88.994393
5.387000e+09 -30.808638 82.389049 88.782521
5.387250e+09 -31.021792 82.582670 86.847210
5.387500e+09 -30.920233 82.666562 86.696837
5.387750e+09 -31.616567 81.996631 86.851153
5.388000e+09 -31.741716 82.284835 87.649436
5.388250e+09 -31.622277 82.069344 84.894512
5.388500e+09 -31.584884 82.327485 86.563824
5.388750e+09 -31.590417 82.011220 85.146453
5.389000e+09 -31.406727 82.440989 87.176773
5.389250e+09 -31.433530 82.069922 86.769598
5.389500e+09 -31.100858 82.181535 87.322213
5.389750e+09 -31.782728 81.981990 85.351327
5.390000e+09 -31.555521 82.347067 84.458605
5.390250e+09 -31.350382 82.282741 85.072293
5.390500e+09 -31.278734 82.299310 83.021358
5.390750e+09 -31.413549 82.274987 83.493242
5.391000e+09 -31.825795 82.101957 83.532659
5.391250e+09 -31.883072 82.043221 81.669028
5.391500e+09 -31.912669 81.893484 81.846501
5.391750e+09 -31.897862 82.030835 83.140710
5.392000e+09 -31.799943 81.769968 84.794836
5.392250e+09 -31.782612 81.941743 81.747893
5.392500e+09 -32.183421 81.622016 80.216473
5.392750e+09 -32.407321 81.357479 80.402383
5.393000e+09 -32.369891 81.698391 79.538119
5.393250e+09 -32.603064 81.380542 79.054584
5.393500e+09 -32.834519 81.287299 79.061917
5.393750e+09 -32.273246 81.505732 80.894927
5.394000e+09 -32.840374 81.171159 77.526734
5.394250e+09 -33.020388 81.105202 77.656810
5.394500e+09 -32.477819 81.225492 79.789073
5.394750e+09 -33.042422 81.100583 79.466502
5.395000e+09 -32.890712 81.339938 77.859968
5.395250e+09 -33.076382 81.054503 75.935869
5.395500e+09 -33.229043 80.748825 75.319763
5.395750e+09 -33.220063 80.723845 76.546163
5.396000e+09 -32.717358 81.125715 76.104723
5.396250e+09 -32.971204 80.775686 76.892179
5.396500e+09 -32.609749 81.128094 74.940687
5.396750e+09 -33.165200 80.949486 75.445703
5.397000e+09 -33.360738 80.884775 75.258065
5.397250e+09 -33.412290 80.464607 73.165002
5.397500e+09 -33.253978 80.449494 75.286453
5.397750e+09 -33.264065 80.714638 72.398813
5.398000e+09 -33.660490 80.593956 72.309617
5.398250e+09 -33.474828 80.668332 72.417965
5.398500e+09 -33.802809 80.353402 70.056753
5.398750e+09 -33.602289 80.563575 70.077557
5.399000e+09 -34.560877 79.945684 70.047245
5.399250e+09 -34.269783 79.991279 67.127847
5.399500e+09 -33.986486 80.171077 69.055848
5.399750e+09 -34.491047 80.041706 69.715715
5.400000e+09 -34.511584 80.069617 67.498859
5.400250e+09 -34.848008 79.689836 68.445452
5.400500e+09 -34.756006 79.829662 67.459555
5.400750e+09 -34.644978 79.986077 63.048451
5.401000e+09 -34.311043 79.750915 65.418248
5.401250e+09 -34.485978 79.673812 64.676910
5.401500e+09 -34.597054 79.557524 63.096957
5.401750e+09 -34.510897 79.304580 62.097302
5.402000e+09 -34.689618 79.604040 58.362840
5.402250e+09 -35.253837 79.293794 55.865581
5.402500e+09 -34.750352 79.459538 58.917043
5.402750e+09 -34.582217 79.587215 56.408232
5.403000e+09 -34.765449 79.647556 53.956955
5.403250e+09 -35.258678 79.393069 48.079650
5.403500e+09 -35.173194 79.362517 52.105313
5.403750e+09 -35.174343 79.007354 50.868979
5.404000e+09 -35.401902 78.642430 47.037846
5.404250e+09 -35.602809 78.866935 46.432002
5.404500e+09 -35.570920 79.092684 43.219587
5.404750e+09 -35.225778 79.154015 44.390658
5.405000e+09 -35.307511 78.905780 45.718398
5.405250e+09 -35.297972 79.351246 40.791028
5.405500e+09 -36.027389 78.925617 41.479982
5.405750e+09 -35.896298 79.108939 40.359267
5.406000e+09 -35.566957 78.946261 38.338312
5.406250e+09 -35.644176 79.129190 33.870534
5.406500e+09 -35.344269 79.483711 29.883179
5.406750e+09 -35.293000 79.510749 27.200615
5.407000e+09 -35.797153 79.189700 29.603695
5.407250e+09 -35.705363 79.405586 28.316127
5.407500e+09 -35.495475 79.175585 23.648780
5.407750e+09 -35.025225 79.794779 21.145241
5.408000e+09 -34.808786 79.791188 22.117561
5.408250e+09 -35.455473 79.698062 18.003236
5.408500e+09 -35.138595 79.626051 15.606303
5.408750e+09 -35.322390 79.870380 14.916038
5.409000e+09 -34.723234 80.110602 13.058314
5.409250e+09 -34.494512 80.150100 12.139175
5.409500e+09 -34.437542 80.389308 9.238191
5.409750e+09 -34.253025 80.478968 9.574584
5.410000e+09 -34.123100 80.612276 6.386596
5.410250e+09 -33.633500 81.360075 3.926342
5.410500e+09 -33.875208 81.435264 5.462713
5.410750e+09 -33.591765 81.622651 0.181335
5.411000e+09 -33.207148 81.817256 -0.138654
5.411250e+09 -32.853470 82.095207 -4.059397
5.411500e+09 -33.080485 82.422052 -3.295367
5.411750e+09 -33.123733 82.513522 -3.766803
5.412000e+09 -32.410015 82.912226 -6.163496
5.412250e+09 -31.879125 83.337922 -9.859929
5.412500e+09 -31.650761 83.575713 -10.292946
5.412750e+09 -31.964226 83.687260 -10.734805
5.413000e+09 -31.519630 84.127567 -12.918795
5.413250e+09 -31.094965 84.540186 -13.630914
5.413500e+09 -30.756335 84.520265 -16.735342
5.413750e+09 -30.701067 84.866065 -16.767811
5.414000e+09 -30.409521 84.961040 -17.531389
5.414250e+09 -29.949961 85.374537 -19.904507
5.414500e+09 -29.800728 85.526068 -20.820574
5.414750e+09 -29.458483 86.172856 -21.370381
5.415000e+09 -29.620472 86.318982 -22.741615
5.415250e+09 -28.993280 86.689081 -23.850077
5.415500e+09 -28.625198 86.854722 -26.064249
5.415750e+09 -28.332360 87.229436 -25.706630
5.416000e+09 -28.097417 87.393099 -27.061643
5.416250e+09 -28.070162 87.733933 -29.370705
5.416500e+09 -27.902938 88.147289 -30.079815
5.416750e+09 -27.350262 88.349760 -29.918025
5.417000e+09 -27.287374 88.747293 -32.014443
5.417250e+09 -26.944300 89.371845 -31.303026
5.417500e+09 -26.638871 89.716720 -31.791232
5.417750e+09 -26.281197 90.119999 -31.776413
5.418000e+09 -25.854043 90.188433 -33.305930
5.418250e+09 -25.590024 90.560977 -34.878314
5.418500e+09 -25.250052 91.065171 -35.208019
5.418750e+09 -24.606232 91.665130 -35.874033
5.419000e+09 -24.609518 91.783027 -36.845304
5.419250e+09 -24.321006 92.161768 -36.441490
5.419500e+09 -24.158329 92.414284 -38.039269
5.419750e+09 -23.880279 92.747315 -38.439880
5.420000e+09 -23.601011 93.108920 -39.041442
5.420250e+09 -22.950449 93.472933 -40.163886
5.420500e+09 -22.255644 94.164268 -40.679636
5.420750e+09 -22.131132 94.307176 -41.495830
5.421000e+09 -21.562286 94.849348 -42.684825
5.421250e+09 -21.584027 95.112882 -43.031224
5.421500e+09 -21.387791 95.529044 -42.896087
5.421750e+09 -20.804035 96.149383 -42.997338
5.422000e+09 -20.248757 96.480378 -44.301683
5.422250e+09 -19.906410 96.690488 -45.520706
5.422500e+09 -19.970272 97.045442 -46.220878
5.422750e+09 -19.329839 97.480200 -47.351720
5.423000e+09 -18.706128 98.049918 -48.623848
5.423250e+09 -18.654138 98.438676 -49.628197
5.423500e+09 -17.946765 98.981334 -50.345941
5.423750e+09 -17.375754 99.729756 -50.292275
5.424000e+09 -17.270947 100.141667 -49.952851
5.424250e+09 -16.587920 100.598443 -51.527473
5.424500e+09 -15.976640 101.124668 -52.681141
5.424750e+09 -15.557422 101.595926 -54.046900
5.425000e+09 -14.939269 102.286198 -55.104048
5.425250e+09 -14.461130 102.789196 -56.080529
5.425500e+09 -14.152519 103.227300 -57.839304
5.425750e+09 -14.137954 103.703999 -58.718067
5.426000e+09 -13.109045 104.500584 -59.859645
5.426250e+09 -12.420678 105.170978 -61.692718
5.426500e+09 -12.239457 105.836835 -62.247230
5.426750e+09 -11.444208 106.496564 -64.498693
5.427000e+09 -10.831301 107.312636 -65.466802
5.427250e+09 -10.056642 108.145763 -66.548977
5.427500e+09 -9.356671 108.911138 -68.023981
5.427750e+09 -8.426289 109.749092 -70.233848
5.428000e+09 -7.914915 110.281478 -74.449695
5.428250e+09 -6.759435 111.044356 -79.016110
5.428500e+09 -6.383477 111.486539 -83.625646
5.428750e+09 -4.905011 112.339580 -88.219420
5.429000e+09 -3.813515 112.838503 -93.664922
5.429250e+09 -2.918345 113.044383 -100.183346
5.429500e+09 -2.504923 112.973973 -111.118268
5.429750e+09 -2.284184 112.553573 -120.549023
5.430000e+09 -2.230787 112.096829 -131.199750
5.430250e+09 -1.864109 111.770621 -141.635947
5.430500e+09 -2.000878 111.654542 -153.456202
5.430750e+09 -2.364763 111.294064 -163.708148
5.431000e+09 -2.976416 110.682641 -171.927172
5.431250e+09 -4.076235 109.798505 -179.173607
5.431500e+09 -4.764740 109.550788 175.033972
5.431750e+09 -5.483990 109.192996 170.362451
5.432000e+09 -6.223708 108.433116 166.370171
5.432250e+09 -6.893655 107.995977 163.136344
5.432500e+09 -7.579891 107.665609 160.480943
5.432750e+09 -8.309581 107.151157 158.067010
5.433000e+09 -8.694229 106.755301 156.040235
5.433250e+09 -9.555048 106.026765 153.963325
5.433500e+09 -9.776808 105.843220 152.435320
5.433750e+09 -10.143837 105.645960 151.119984
5.434000e+09 -10.959051 105.182945 149.926870
5.434250e+09 -11.135894 104.890903 148.654102
5.434500e+09 -11.495466 104.729263 147.742447
5.434750e+09 -11.863425 104.479968 147.056203
5.435000e+09 -12.160163 104.242220 146.314752
5.435250e+09 -12.843142 103.505815 144.471266
5.435500e+09 -13.184019 103.149599 143.032465
5.435750e+09 -13.582571 102.829721 141.819252
5.436000e+09 -14.028111 102.557710 141.133756
5.436250e+09 -13.920630 102.666937 140.439110
5.436500e+09 -14.094085 102.543527 139.767440
5.436750e+09 -14.317335 102.512083 139.749052
5.437000e+09 -15.016799 101.968060 139.100448
5.437250e+09 -15.514759 101.739990 138.792917
5.437500e+09 -15.667482 101.744778 138.865298
5.437750e+09 -15.987921 101.548943 138.799532
5.438000e+09 -16.087219 101.500113 138.796435
5.438250e+09 -16.212241 101.415128 138.975851
5.438500e+09 -16.188077 101.369363 139.082630
5.438750e+09 -16.616087 101.102763 138.515417
5.439000e+09 -16.525672 101.029750 138.380725
5.439250e+09 -16.614732 100.736361 136.781503
5.439500e+09 -16.706894 100.679313 136.192053
5.439750e+09 -17.380788 100.434669 136.059741
5.440000e+09 -17.232375 100.418091 135.726910
5.440250e+09 -17.413565 100.360891 135.741309
5.440500e+09 -17.516329 100.113033 134.665348
5.440750e+09 -18.300588 99.638293 134.153888
5.441000e+09 -18.646497 99.412444 133.418707
5.441250e+09 -18.273336 99.503214 132.393595
5.441500e+09 -18.780363 99.199883 131.942026
5.441750e+09 -18.500974 99.448629 132.188144
5.442000e+09 -18.603484 99.241488 131.225852
5.442250e+09 -19.047129 98.891240 130.406028
5.442500e+09 -19.186966 98.767720 129.529583
5.442750e+09 -19.389150 98.912466 130.433061
5.443000e+09 -19.244297 98.809167 129.889749
5.443250e+09 -19.814333 98.658254 130.135964
5.443500e+09 -20.106255 98.540858 130.558248
5.443750e+09 -20.294770 98.425157 130.625894
5.444000e+09 -20.193128 98.467724 131.327074
5.444250e+09 -20.525210 98.202034 130.847136
5.444500e+09 -20.777203 97.938718 129.948395
5.444750e+09 -20.958473 97.799616 129.386638
5.445000e+09 -20.893576 97.641392 128.258918
5.445250e+09 -20.887619 97.873455 128.666168
5.445500e+09 -20.566281 98.061331 129.694901
5.445750e+09 -21.219317 97.523064 128.682680
5.446000e+09 -20.717792 97.784098 128.160381
5.446250e+09 -21.335326 97.602322 128.551191
5.446500e+09 -21.232864 97.340180 127.109123
5.446750e+09 -21.159285 97.273567 125.868356
5.447000e+09 -21.693935 97.236082 126.596117
5.447250e+09 -21.725892 97.300995 127.730296
5.447500e+09 -21.484037 97.145272 126.524138
5.447750e+09 -21.683200 97.172689 127.452000
5.448000e+09 -22.008742 96.796653 125.889223
5.448250e+09 -22.460539 96.659453 125.507721
5.448500e+09 -22.617214 96.447173 125.096684
5.448750e+09 -22.041866 96.753426 125.031530
5.449000e+09 -21.945158 96.805202 125.128888
5.449250e+09 -22.626662 96.507571 125.049758
5.449500e+09 -22.807080 96.198333 124.375707
5.449750e+09 -23.043330 96.168863 124.452327
5.450000e+09 -23.224353 96.119831 124.414026
5.450250e+09 -23.019453 96.219872 125.214944
5.450500e+09 -23.048518 96.201444 125.257364
5.450750e+09 -23.417696 95.908132 124.699318
5.451000e+09 -23.477855 95.875980 125.224193
5.451250e+09 -23.709630 95.721893 124.494548
5.451500e+09 -23.852856 95.556092 124.452364
5.451750e+09 -23.624678 95.467945 123.181638
5.452000e+09 -23.431313 95.634611 123.482847
5.452250e+09 -24.036009 95.309560 122.633014
5.452500e+09 -23.970963 95.123059 121.543217
5.452750e+09 -23.836563 95.286367 121.840485
5.453000e+09 -24.138589 94.989028 120.668264
5.453250e+09 -24.190018 95.036657 120.977553
5.453500e+09 -24.548843 94.732437 120.019203
5.453750e+09 -24.372905 94.872333 120.423879
5.454000e+09 -24.153993 94.995345 120.133078
5.454250e+09 -24.782312 94.452318 119.122552
5.454500e+09 -24.756481 94.340079 118.106404
5.454750e+09 -24.418344 94.457528 117.050921
5.455000e+09 -24.696776 94.432863 118.276296
5.455250e+09 -24.760461 94.423146 118.604700
5.455500e+09 -24.599017 94.391943 117.908018
5.455750e+09 -25.441653 93.864483 118.002816
5.456000e+09 -25.213943 94.046940 118.404331
5.456250e+09 -25.014841 94.059783 117.674715
5.456500e+09 -25.187913 93.924970 118.222626
5.456750e+09 -25.878276 93.422482 116.636159
5.457000e+09 -25.612867 93.576600 116.801259
5.457250e+09 -25.954295 93.291831 117.156834
5.457500e+09 -26.316955 92.998086 115.721284
5.457750e+09 -26.137456 92.916352 114.634467
5.458000e+09 -25.735283 93.143950 113.894864
5.458250e+09 -26.432259 92.736402 114.160945
5.458500e+09 -26.011352 92.927027 113.641299
5.458750e+09 -26.020998 92.712711 112.857865
5.459000e+09 -26.467334 92.461835 111.093603
5.459250e+09 -26.524547 92.514730 111.873672
5.459500e+09 -27.155905 92.077991 111.023694
5.459750e+09 -27.417302 91.799365 110.323648
5.460000e+09 -27.681189 91.648145 110.212301
5.460250e+09 -27.812445 91.446370 110.178684
5.460500e+09 -27.846924 91.394882 109.030631
5.460750e+09 -27.389169 91.676009 110.111267
5.461000e+09 -27.550138 91.399917 108.594264
5.461250e+09 -27.555341 91.273692 106.770380
5.461500e+09 -27.197513 91.324174 106.034847
5.461750e+09 -27.148762 91.402233 106.202853
5.462000e+09 -27.256201 91.211164 106.108937
5.462250e+09 -28.152284 90.678255 104.886775
5.462500e+09 -28.621396 90.406292 103.967063
5.462750e+09 -27.853881 90.671519 104.154620
5.463000e+09 -27.806646 90.581472 104.459130
5.463250e+09 -27.990642 90.414235 103.332689
5.463500e+09 -28.406964 90.186774 101.587786
5.463750e+09 -28.977085 89.736614 100.068381
5.464000e+09 -28.627591 89.823856 100.522592
5.464250e+09 -28.483208 89.955611 101.078704
5.464500e+09 -28.493610 89.732047 101.181341
5.464750e+09 -29.414290 89.226173 100.140920
5.465000e+09 -28.958140 89.344928 99.896889
5.465250e+09 -28.817712 89.288015 99.571213
5.465500e+09 -29.312672 89.147919 100.038661
5.465750e+09 -29.584624 88.868935 97.838755
5.466000e+09 -29.437451 88.667888 97.283783
5.466250e+09 -29.304270 88.609679 96.830902
5.466500e+09 -29.626381 88.668273 96.970304
5.466750e+09 -29.878565 88.330327 95.265204
5.467000e+09 -29.944356 88.113132 94.430669
5.467250e+09 -29.876423 87.947140 93.431867
5.467500e+09 -30.608102 87.649594 93.467729
5.467750e+09 -30.621128 87.547446 93.259753
5.468000e+09 -31.231759 87.155461 91.391094
5.468250e+09 -30.645464 87.282254 90.363095
5.468500e+09 -31.331389 86.824145 87.942442
5.468750e+09 -31.697151 86.528495 88.019218
5.469000e+09 -31.062857 86.728323 87.488088
5.469250e+09 -31.244736 86.598655 85.027038
5.469500e+09 -31.421461 86.422008 85.960820
5.469750e+09 -31.437212 86.297935 85.015756
5.470000e+09 -32.034442 85.893316 84.385120
5.470250e+09 -31.716035 85.941390 83.816297
5.470500e+09 -31.722582 85.991958 82.711114
5.470750e+09 -32.152156 85.588131 82.877242
5.471000e+09 -32.694515 85.272174 79.762476
5.471250e+09 -32.089171 85.425597 79.531292
5.471500e+09 -32.174047 85.120650 77.604383
5.471750e+09 -32.335044 85.085831 78.040442
5.472000e+09 -32.455443 84.896816 76.153312
5.472250e+09 -32.275135 84.859851 75.125097
5.472500e+09 -32.825024 84.628572 74.103741
5.472750e+09 -33.288678 84.249865 73.062422
5.473000e+09 -33.042292 84.213469 71.486857
5.473250e+09 -32.950665 84.075611 68.856057
5.473500e+09 -32.818629 83.832215 69.070747
5.473750e+09 -33.409646 83.908657 68.201388
5.474000e+09 -33.332676 83.599345 66.114251
5.474250e+09 -33.101818 83.846882 64.578383
5.474500e+09 -33.104815 83.724775 62.224152
5.474750e+09 -33.994894 83.311358 60.848767
5.475000e+09 -34.077776 83.103629 57.589598
5.475250e+09 -33.793731 83.270833 56.278976
5.475500e+09 -33.687212 82.952529 56.196521
5.475750e+09 -34.105993 82.821337 54.094724
5.476000e+09 -33.885718 82.983366 51.995561
5.476250e+09 -33.923651 82.828055 53.238447
5.476500e+09 -34.278109 82.560699 48.184987
5.476750e+09 -34.171644 82.543693 49.969826
5.477000e+09 -34.201521 82.285959 45.805815
5.477250e+09 -34.371932 82.220862 46.520558
5.477500e+09 -34.324306 82.339201 43.722756
5.477750e+09 -34.136755 82.398998 42.083108
5.478000e+09 -34.427009 82.048649 38.865148
5.478250e+09 -34.402254 82.205018 35.692352
5.478500e+09 -34.356103 82.246389 35.648469
5.478750e+09 -34.022874 82.264025 34.943068
5.479000e+09 -34.422941 82.025391 33.358430
5.479250e+09 -34.214437 82.177435 31.189090
5.479500e+09 -34.189281 82.081465 31.222830
5.479750e+09 -34.183784 81.894071 27.365787
5.480000e+09 -33.928804 81.823855 26.101569
5.480250e+09 -33.802445 82.114200 25.113321
5.480500e+09 -33.892289 81.996131 22.963170
5.480750e+09 -34.231298 81.958362 23.305143
5.481000e+09 -33.705216 82.010796 21.279117
5.481250e+09 -33.697906 81.842147 18.360168
5.481500e+09 -34.033484 82.021463 17.087405
5.481750e+09 -33.938712 82.163861 12.595486
5.482000e+09 -33.421021 82.211079 11.558064
5.482250e+09 -33.294692 82.144510 10.377479
5.482500e+09 -33.118920 82.484147 10.246934
5.482750e+09 -33.132278 82.494549 8.779504
5.483000e+09 -33.199603 82.667068 5.707407
5.483250e+09 -32.940064 82.689471 7.566836
5.483500e+09 -33.081757 82.597214 6.149438
5.483750e+09 -32.976387 82.678741 5.468018
5.484000e+09 -32.929765 82.814649 4.807975
5.484250e+09 -32.937726 82.702012 2.795878
5.484500e+09 -32.783681 82.919472 -1.152757
5.484750e+09 -32.229130 83.169751 -1.660297
5.485000e+09 -32.349354 83.099719 0.329316
5.485250e+09 -32.476772 83.054414 -3.552015
5.485500e+09 -32.365624 83.152165 -3.352349
5.485750e+09 -31.826076 83.391646 -5.843664
5.486000e+09 -31.460635 83.548906 -7.748265
5.486250e+09 -31.452333 83.500827 -7.615080
5.486500e+09 -31.325641 83.781819 -8.332519
5.486750e+09 -31.234221 83.536681 -11.195937
5.487000e+09 -31.485111 83.647211 -9.790156
5.487250e+09 -30.927815 83.965743 -12.551880
5.487500e+09 -30.994113 83.691482 -12.107154
5.487750e+09 -30.831456 83.928863 -14.109064
5.488000e+09 -30.810803 83.795397 -15.814056
5.488250e+09 -30.977515 83.953635 -17.044335
5.488500e+09 -30.611822 84.062140 -17.334010
5.488750e+09 -30.263519 84.243288 -19.564786
5.489000e+09 -30.392413 84.367339 -17.429453
5.489250e+09 -30.518222 84.315466 -18.768417
5.489500e+09 -30.129205 84.518170 -19.976619
5.489750e+09 -29.849375 84.699528 -21.999305
5.490000e+09 -29.847831 84.750815 -22.785282
5.490250e+09 -29.815611 84.844734 -24.678934
5.490500e+09 -29.659964 84.716286 -24.378462
5.490750e+09 -29.531295 84.974822 -26.531704
5.491000e+09 -29.233429 85.115288 -25.966520
5.491250e+09 -29.482360 84.985369 -26.854619
5.491500e+09 -29.223159 85.032332 -26.537380
5.491750e+09 -28.715628 85.394859 -27.427423
5.492000e+09 -28.865026 85.372291 -26.922026
5.492250e+09 -28.968491 85.466713 -28.778572
5.492500e+09 -28.665981 85.513090 -29.273192
5.492750e+09 -28.530809 85.609279 -31.689517
5.493000e+09 -28.528930 85.678462 -30.468453
5.493250e+09 -28.628890 85.738025 -31.762680
5.493500e+09 -28.188764 85.812818 -32.523073
5.493750e+09 -28.078953 85.834232 -32.670917
5.494000e+09 -28.292133 85.911390 -33.626498
5.494250e+09 -28.119310 86.058437 -34.721451
5.494500e+09 -28.142252 86.088179 -33.185626
5.494750e+09 -27.604923 86.330117 -34.384212
5.495000e+09 -27.518041 86.180071 -35.190527
5.495250e+09 -27.466934 86.336896 -35.700007
5.495500e+09 -27.328514 86.527534 -35.458433
5.495750e+09 -27.132402 86.499309 -37.041264
5.496000e+09 -27.183625 86.606041 -38.334263
5.496250e+09 -26.884536 86.804569 -38.029326
5.496500e+09 -26.993067 86.625210 -38.229340
5.496750e+09 -26.685004 86.889228 -38.914616
5.497000e+09 -26.870717 86.643330 -38.968196
5.497250e+09 -26.990826 86.742158 -39.922680
5.497500e+09 -27.040061 86.885213 -39.589356
5.497750e+09 -26.595218 86.783243 -41.520984
5.498000e+09 -26.244343 87.065534 -42.259188
5.498250e+09 -26.233895 86.944035 -42.276631
5.498500e+09 -26.224836 87.153184 -42.992452
5.498750e+09 -26.287435 87.114736 -43.591720
5.499000e+09 -26.172784 87.188230 -44.844619
5.499250e+09 -26.182184 87.232560 -45.160806
5.499500e+09 -26.077255 87.449090 -44.279228
5.499750e+09 -26.021888 87.502556 -45.701299
5.500000e+09 -25.825912 87.439787 -46.084059
5.500250e+09 -25.479123 87.818594 -45.504989
5.500500e+09 -25.453707 87.545703 -46.373117
5.500750e+09 -25.348483 87.634442 -47.265845
5.501000e+09 -25.435088 87.637158 -48.326550
5.501250e+09 -25.089105 87.892996 -48.432322
5.501500e+09 -25.118025 87.783873 -48.946080
5.501750e+09 -25.141687 87.822668 -49.543947
5.502000e+09 -24.944905 88.181994 -49.008330
5.502250e+09 -25.001283 88.075679 -50.232346
5.502500e+09 -25.256055 88.002383 -50.427318
5.502750e+09 -24.665149 88.365632 -50.476889
5.503000e+09 -24.585563 88.065950 -51.200352
5.503250e+09 -24.947169 88.245991 -50.678583
5.503500e+09 -24.622499 88.300996 -51.721101
5.503750e+09 -24.312866 88.333306 -52.551649
5.504000e+09 -24.478742 88.514113 -51.499185
5.504250e+09 -24.276152 88.753952 -50.939931
5.504500e+09 -24.302358 88.522404 -52.176379
5.504750e+09 -24.429145 88.588199 -52.653024
5.505000e+09 -24.441858 88.645040 -53.710761
5.505250e+09 -24.537409 88.608990 -53.815684
5.505500e+09 -24.384591 88.691074 -53.254930
5.505750e+09 -24.269323 88.748760 -54.250950
5.506000e+09 -23.648503 88.869811 -55.150893
5.506250e+09 -24.072002 88.822832 -55.491999
5.506500e+09 -23.454645 89.172281 -54.965975
5.506750e+09 -24.070246 88.959439 -55.231274
5.507000e+09 -24.001577 88.951547 -55.693716
5.507250e+09 -24.076914 88.943093 -55.868204
5.507500e+09 -23.939528 89.001502 -56.777182
5.507750e+09 -23.673468 89.156829 -55.916836
5.508000e+09 -23.686404 89.190181 -56.136315
5.508250e+09 -23.733456 89.189727 -57.043298
5.508500e+09 -23.402123 89.365665 -56.402657
5.508750e+09 -22.854563 89.670515 -56.652038
5.509000e+09 -23.040153 89.587885 -56.419436
5.509250e+09 -22.590799 89.757023 -57.574251
5.509500e+09 -23.010569 89.517148 -58.748424
5.509750e+09 -23.223213 89.468208 -58.749195
5.510000e+09 -23.286633 89.515625 -58.694792
5.510250e+09 -22.556138 89.713219 -60.293341
5.510500e+09 -22.294542 89.882980 -60.938247
5.510750e+09 -22.756023 89.697577 -61.812494
5.511000e+09 -23.060182 89.542973 -62.390924
5.511250e+09 -22.555397 89.576866 -63.257314
5.511500e+09 -22.212447 90.018751 -62.348000
5.511750e+09 -21.945440 90.131978 -62.874260
5.512000e+09 -21.793927 90.302143 -62.959810
5.512250e+09 -22.475113 89.913113 -63.796474
5.512500e+09 -22.293906 89.920931 -64.925853
5.512750e+09 -21.712425 90.239219 -65.211187
5.513000e+09 -21.821621 90.185306 -65.736748
5.513250e+09 -22.035639 90.263085 -64.624947
5.513500e+09 -22.139525 90.107779 -65.757678
5.513750e+09 -22.205624 90.148031 -65.508658
5.514000e+09 -22.165960 90.171598 -66.213826
5.514250e+09 -21.981923 90.301737 -65.645767
5.514500e+09 -22.100353 90.243831 -66.884209
5.514750e+09 -21.505458 90.521449 -67.145769
5.515000e+09 -21.875732 90.346932 -66.991016
5.515250e+09 -21.958831 90.387639 -66.419107
5.515500e+09 -21.935478 90.450034 -65.904552
5.515750e+09 -21.230558 90.717617 -66.655152
5.516000e+09 -21.179547 90.795350 -66.130147
5.516250e+09 -21.791885 90.467240 -67.786283
5.516500e+09 -21.960496 90.372274 -68.057532
5.516750e+09 -21.137873 90.768384 -68.773582
5.517000e+09 -21.452021 90.669792 -68.428400
5.517250e+09 -21.132797 90.781372 -69.799931
5.517500e+09 -21.317631 90.628620 -71.190634
5.517750e+09 -21.626564 90.600158 -71.020684
5.518000e+09 -20.862423 90.940446 -71.719785
5.518250e+09 -20.510112 91.158147 -71.685769
5.518500e+09 -20.640266 91.032869 -72.698844
5.518750e+09 -20.829990 91.058445 -71.939516
5.519000e+09 -21.358654 90.775086 -72.605419
5.519250e+09 -21.120619 90.968112 -71.692507
5.519500e+09 -20.476714 91.202873 -72.724425
5.519750e+09 -20.450861 91.207241 -73.783801
5.520000e+09 -21.025971 90.985386 -73.488702
5.520250e+09 -21.255440 90.867068 -74.220830
5.520500e+09 -20.412478 91.293368 -73.849704
5.520750e+09 -20.967843 91.072464 -74.709675
5.521000e+09 -21.086368 91.030848 -74.317919
5.521250e+09 -20.501673 91.287606 -75.442259
5.521500e+09 -20.399968 91.301971 -76.804458
5.521750e+09 -20.874795 91.128224 -77.643130
5.522000e+09 -20.412690 91.357858 -78.306102
5.522250e+09 -20.212899 91.409849 -79.113629
5.522500e+09 -20.636651 91.292877 -78.512463
5.522750e+09 -20.837914 91.209459 -77.830843
5.523000e+09 -20.207389 91.477384 -78.670602
5.523250e+09 -19.910385 91.653605 -79.706968
5.523500e+09 -19.732141 91.797959 -78.868580
5.523750e+09 -19.803117 91.821362 -78.102309
5.524000e+09 -20.288024 91.550888 -79.397588
5.524250e+09 -20.650635 91.313328 -80.335531
5.524500e+09 -19.822116 91.709525 -80.917293
5.524750e+09 -19.503001 91.961871 -80.479071
5.525000e+09 -20.216449 91.590637 -80.490394
5.525250e+09 -20.150281 91.709505 -79.233442
5.525500e+09 -20.443256 91.543701 -80.320717
5.525750e+09 -20.100015 91.716422 -81.259771
5.526000e+09 -20.020913 91.701650 -82.647164
5.526250e+09 -19.844325 91.885390 -81.783582
5.526500e+09 -19.384073 92.124897 -81.533957
5.526750e+09 -19.559710 91.961837 -82.584596
5.527000e+09 -20.110087 91.676171 -83.272226
5.527250e+09 -20.144262 91.759360 -82.199754
5.527500e+09 -19.534439 92.011404 -83.378048
5.527750e+09 -19.422128 92.081524 -84.537587
5.528000e+09 -19.134106 92.246572 -85.371093
5.528250e+09 -19.273042 92.184813 -85.819623
5.528500e+09 -19.227760 92.253130 -85.007082
5.528750e+09 -19.553934 92.164723 -84.219985
5.529000e+09 -19.905143 91.974704 -85.364910
5.529250e+09 -19.915148 91.967907 -84.613400
5.529500e+09 -19.677722 92.121456 -85.761877
5.529750e+09 -19.909797 91.965915 -86.119077
5.530000e+09 -19.165188 92.338009 -85.842643
5.530250e+09 -19.175566 92.394535 -84.839217
5.530500e+09 -18.854458 92.544263 -85.526271
5.530750e+09 -19.200604 92.357542 -86.647545
5.531000e+09 -18.969018 92.474613 -88.020822
5.531250e+09 -18.861637 92.560515 -87.293184
5.531500e+09 -18.721757 92.663622 -87.144909
5.531750e+09 -19.272249 92.313986 -88.362400
5.532000e+09 -19.572376 92.255390 -89.337076
5.532250e+09 -19.439908 92.303064 -88.500290
5.532500e+09 -19.574321 92.301254 -89.627694
5.532750e+09 -19.168876 92.518201 -88.652311
5.533000e+09 -19.257513 92.416366 -89.917772
5.533250e+09 -19.262171 92.532951 -91.109050
5.533500e+09 -18.659444 92.724962 -91.830235
5.533750e+09 -18.377258 92.891739 -91.680679
5.534000e+09 -19.133696 92.562427 -91.919226
5.534250e+09 -18.719356 92.737844 -92.360176
5.534500e+09 -18.680753 92.755932 -93.449374
5.534750e+09 -19.060035 92.579330 -93.204920
5.535000e+09 -18.694792 92.741829 -93.813242
5.535250e+09 -18.832400 92.737814 -93.083145
5.535500e+09 -18.978916 92.705806 -94.072125
5.535750e+09 -19.241909 92.557626 -93.939542
5.536000e+09 -18.684002 92.877351 -94.639330
5.536250e+09 -19.104413 92.680977 -95.546977
5.536500e+09 -18.444279 92.959733 -94.620400
5.536750e+09 -18.189990 93.081450 -94.991025
5.537000e+09 -18.033657 93.192014 -94.731031
5.537250e+09 -18.550729 92.941107 -94.045826
5.537500e+09 -19.061412 92.718222 -94.961923
5.537750e+09 -18.885725 92.812275 -94.121334
5.538000e+09 -18.683904 92.903696 -93.721045
5.538250e+09 -18.624479 93.005306 -95.446473
5.538500e+09 -18.718937 92.943548 -95.276689
5.538750e+09 -18.735831 92.929559 -96.777637
5.539000e+09 -18.155547 93.208951 -97.457697
5.539250e+09 -17.941013 93.401795 -98.067385
5.539500e+09 -18.080901 93.301817 -97.327474
5.539750e+09 -17.946356 93.396338 -98.244226
5.540000e+09 -17.896720 93.410127 -97.995873
5.540250e+09 -17.754940 93.485766 -98.762133
5.540500e+09 -17.685974 93.534046 -99.251236
5.540750e+09 -17.725735 93.557175 -99.963409
5.541000e+09 -18.334754 93.198670 -99.268447
5.541250e+09 -18.181236 93.314200 -98.793490
5.541500e+09 -17.828437 93.530370 -99.608267
5.541750e+09 -17.749596 93.595023 -100.524461
5.542000e+09 -18.125358 93.478056 -101.986504
5.542250e+09 -17.808532 93.575251 -102.097011
5.542500e+09 -18.453100 93.236915 -102.258955
5.542750e+09 -18.195853 93.469786 -102.795008
5.543000e+09 -18.419187 93.280575 -102.307917
5.543250e+09 -17.838683 93.552896 -102.374148
5.543500e+09 -17.538345 93.730154 -102.576179
5.543750e+09 -17.482824 93.761911 -102.967091
5.544000e+09 -18.186468 93.420272 -103.594353
5.544250e+09 -17.755663 93.679603 -104.169697
5.544500e+09 -17.517731 93.820277 -104.473226
5.544750e+09 -17.579245 93.814174 -105.047883
5.545000e+09 -17.491979 93.895234 -105.706728
5.545250e+09 -17.395199 93.865654 -105.358461
5.545500e+09 -17.354419 93.920342 -105.433047
5.545750e+09 -17.859110 93.636630 -104.362183
5.546000e+09 -17.777218 93.782111 -105.664169
5.546250e+09 -17.772337 93.845874 -106.931786
5.546500e+09 -18.312126 93.503335 -107.513892
5.546750e+09 -17.799679 93.829283 -107.865788
5.547000e+09 -18.256322 93.569670 -108.804853
5.547250e+09 -18.492822 93.501638 -109.306209
5.547500e+09 -18.519937 93.467969 -109.525414
5.547750e+09 -17.818190 93.777395 -108.559388
5.548000e+09 -17.504890 93.926094 -108.000929
5.548250e+09 -17.858179 93.822553 -109.062937
5.548500e+09 -17.422577 94.003260 -109.507868
5.548750e+09 -18.066681 93.734122 -110.154554
5.549000e+09 -18.296465 93.643565 -110.813320
5.549250e+09 -17.617571 93.993304 -110.950353
5.549500e+09 -17.734679 93.877453 -109.949416
5.549750e+09 -17.542970 93.926912 -109.353379
5.550000e+09 -18.013039 93.724745 -108.985037
5.550250e+09 -17.524334 93.982622 -109.185620
5.550500e+09 -17.899703 93.787142 -108.720621
5.550750e+09 -17.432167 94.048217 -109.297964
5.551000e+09 -17.441904 94.019231 -108.945534
5.551250e+09 -17.683620 93.872604 -108.678356
5.551500e+09 -18.009052 93.755761 -109.084220
5.551750e+09 -17.460598 94.145147 -110.596359
5.552000e+09 -17.466527 94.083374 -110.943585
5.552250e+09 -17.252369 94.198223 -111.196475
5.552500e+09 -17.814632 94.070232 -112.952999
5.552750e+09 -17.344250 94.260401 -113.225481
5.553000e+09 -17.088600 94.351488 -113.326293
5.553250e+09 -17.475315 94.112843 -112.844711
5.553500e+09 -17.951175 93.983287 -114.520321
5.553750e+09 -18.063236 93.864813 -113.888858
5.554000e+09 -17.390586 94.202766 -114.070152
5.554250e+09 -17.672579 94.261529 -115.632087
5.554500e+09 -17.485883 94.314462 -116.475029
5.554750e+09 -17.487551 94.411799 -117.701442
5.555000e+09 -17.334052 94.464194 -118.540130
5.555250e+09 -17.151706 94.419263 -117.947270
5.555500e+09 -17.864680 94.117188 -118.428417
5.555750e+09 -17.470413 94.453656 -118.746628
5.556000e+09 -17.564095 94.429685 -120.106720
5.556250e+09 -17.996510 94.052843 -119.383606
5.556500e+09 -18.193635 93.930865 -119.075775
5.556750e+09 -17.966757 93.999603 -117.891719
5.557000e+09 -17.666239 94.128398 -117.280799
5.557250e+09 -17.891636 93.992370 -116.956974
5.557500e+09 -17.201234 94.487780 -117.781022
5.557750e+09 -17.816620 94.231583 -118.892036
5.558000e+09 -17.550404 94.496178 -120.162814
5.558250e+09 -17.789486 94.166372 -119.512542
5.558500e+09 -17.321545 94.375248 -119.243576
5.558750e+09 -17.245167 94.398216 -118.703227
5.559000e+09 -17.816909 94.182776 -119.094820
5.559250e+09 -17.881547 94.118592 -118.979497
5.559500e+09 -17.782531 94.185068 -118.915284
5.559750e+09 -17.787721 94.199530 -118.785525
5.560000e+09 -17.606994 94.478239 -121.019604
5.560250e+09 -17.178787 94.617969 -121.267757
5.560500e+09 -17.109381 94.579266 -120.974860
5.560750e+09 -17.308801 94.734248 -122.455560
5.561000e+09 -17.784503 94.446786 -123.304625
5.561250e+09 -17.986827 94.305469 -123.759551
5.561500e+09 -18.068487 94.183218 -123.675688
5.561750e+09 -17.997163 94.362683 -124.456565
5.562000e+09 -17.964186 94.289006 -123.952421
5.562250e+09 -17.231062 94.681519 -124.228319
5.562500e+09 -17.512646 94.645540 -125.114521
5.562750e+09 -17.809262 94.346137 -124.789174
5.563000e+09 -17.534552 94.690009 -126.121186
5.563250e+09 -17.372615 94.561337 -125.330501
5.563500e+09 -17.086844 94.865005 -125.848353
5.563750e+09 -17.193220 94.637567 -125.526585
5.564000e+09 -17.013431 94.895278 -125.991558
5.564250e+09 -16.918919 94.976306 -126.738739
5.564500e+09 -16.828883 94.982857 -127.087938
5.564750e+09 -17.397726 94.578737 -126.502438
5.565000e+09 -17.798840 94.422319 -126.850748
5.565250e+09 -17.750085 94.683786 -128.269638
5.565500e+09 -17.237954 94.773657 -127.921949
5.565750e+09 -17.537563 94.531593 -127.338946
5.566000e+09 -17.686337 94.473802 -127.306085
5.566250e+09 -17.801658 94.423742 -127.390847
5.566500e+09 -17.818607 94.438060 -127.641179
5.566750e+09 -17.206002 94.945157 -128.579001
5.567000e+09 -17.078027 94.876954 -128.949192
5.567250e+09 -17.103374 94.816526 -128.653187
5.567500e+09 -17.120558 94.836716 -128.906449
5.567750e+09 -16.960273 95.049186 -129.592327
5.568000e+09 -17.159459 95.124535 -131.222160
5.568250e+09 -17.118775 94.923234 -130.986533
5.568500e+09 -17.286526 95.048559 -132.183006
5.568750e+09 -17.363327 95.138100 -133.287086
5.569000e+09 -17.654909 94.905817 -133.663059
5.569250e+09 -17.803614 94.805711 -134.030574
5.569500e+09 -17.150153 94.981227 -133.430568
5.569750e+09 -17.338681 95.119003 -134.509602
5.570000e+09 -16.996530 95.104515 -134.169900
5.570250e+09 -16.892841 95.182580 -134.355224
5.570500e+09 -17.330348 95.155006 -135.361971
5.570750e+09 -17.045382 95.205125 -135.615052
5.571000e+09 -16.868427 95.202090 -135.430140
5.571250e+09 -16.901126 95.113042 -135.146883
5.571500e+09 -17.280255 95.172727 -136.241435
5.571750e+09 -17.004725 95.203033 -136.167239
5.572000e+09 -17.173011 94.970259 -135.556207
5.572250e+09 -17.664520 94.840115 -135.838038
5.572500e+09 -17.160473 94.986973 -135.565360
5.572750e+09 -17.310709 95.194542 -136.797560
5.573000e+09 -17.050225 95.250869 -137.429850
5.573250e+09 -17.470936 94.948227 -137.182414
5.573500e+09 -17.409305 94.873494 -136.950350
5.573750e+09 -17.362345 94.846096 -136.579956
5.574000e+09 -17.656157 94.998449 -138.020815
5.574250e+09 -17.153447 95.114887 -138.004713
5.574500e+09 -17.297065 95.288523 -139.410367
5.574750e+09 -17.387746 95.332129 -140.284121
5.575000e+09 -17.576325 95.213002 -140.875006
5.575250e+09 -17.747435 94.991908 -140.804074
5.575500e+09 -17.492836 94.915632 -140.384360
5.575750e+09 -17.556410 95.157480 -141.167356
5.576000e+09 -17.132617 95.176856 -140.816410
5.576250e+09 -17.600259 94.963720 -141.014931
5.576500e+09 -17.346451 94.970897 -140.806756
5.576750e+09 -17.144477 95.042247 -140.637454
5.577000e+09 -17.179026 95.342750 -141.874106
5.577250e+09 -17.106169 95.455059 -142.770356
5.577500e+09 -17.537931 95.186290 -142.874870
5.577750e+09 -17.582267 95.259860 -143.629806
5.578000e+09 -17.211755 95.191179 -143.222301
5.578250e+09 -17.454405 95.269863 -144.258077
5.578500e+09 -17.195104 95.381722 -145.062228
5.578750e+09 -17.032897 95.441395 -145.161789
5.579000e+09 -16.972609 95.344370 -145.015923
5.579250e+09 -17.035950 95.198937 -144.530667
5.579500e+09 -17.295630 95.008732 -144.249118
5.579750e+09 -17.496890 94.885028 -144.031759
5.580000e+09 -17.663382 95.143232 -144.832157
5.580250e+09 -17.754486 95.196028 -145.730171
5.580500e+09 -17.327003 95.118121 -145.502601
5.580750e+09 -17.417085 95.373546 -146.804247
5.581000e+09 -17.507854 95.450129 -147.926094
5.581250e+09 -17.273781 95.481087 -148.236042
5.581500e+09 -17.266882 95.205375 -147.601736
5.581750e+09 -17.607763 94.993801 -147.440872
5.582000e+09 -17.317475 95.300442 -148.424018
5.582250e+09 -17.616738 95.220860 -148.478442
5.582500e+09 -17.594593 95.408306 -149.480370
5.582750e+09 -17.725428 95.173906 -149.517061
5.583000e+09 -17.360662 95.348570 -150.159524
5.583250e+09 -17.324321 95.143947 -149.990342
5.583500e+09 -17.388424 95.003998 -149.231046
5.583750e+09 -17.483535 94.940544 -149.103653
5.584000e+09 -17.687133 94.915035 -149.539449
5.584250e+09 -17.361560 95.255655 -150.246812
5.584500e+09 -17.303771 95.466141 -151.288081
5.584750e+09 -17.357059 95.533269 -152.188748
5.585000e+09 -17.446984 95.558699 -152.670355
5.585250e+09 -17.696561 95.243108 -152.714348
5.585500e+09 -17.363303 95.305115 -152.916829
5.585750e+09 -17.241201 95.245068 -152.899104
5.586000e+09 -17.301309 95.446078 -153.524118
5.586250e+09 -17.355233 95.100219 -153.094342
5.586500e+09 -17.304139 95.295882 -153.862370
5.586750e+09 -17.308835 95.434982 -154.424012
5.587000e+09 -17.661679 95.255641 -154.226688
5.587250e+09 -17.814685 95.122887 -154.200626
5.587500e+09 -17.788372 95.311255 -155.036757
5.587750e+09 -17.538005 95.053155 -154.733206
5.588000e+09 -17.792449 95.122329 -155.311022
5.588250e+09 -17.829245 95.048997 -155.650506
5.588500e+09 -17.819061 95.269483 -156.455323
5.588750e+09 -17.441177 95.225513 -156.399484
5.589000e+09 -17.481746 94.976852 -156.311301
5.589250e+09 -17.738515 94.937142 -156.359588
5.589500e+09 -17.893070 95.032643 -156.938805
5.589750e+09 -17.881827 95.032446 -157.223424
5.590000e+09 -17.830592 94.872356 -157.341173
5.590250e+09 -17.611567 95.287530 -158.028442
5.590500e+09 -17.447405 95.299693 -158.892466
5.590750e+09 -17.502963 95.030137 -158.851786
5.591000e+09 -17.765046 95.227742 -159.139718
5.591250e+09 -17.754033 95.011288 -159.251849
5.591500e+09 -17.794467 94.790413 -159.144005
5.591750e+09 -17.939395 95.014935 -159.971292
5.592000e+09 -17.968929 95.112372 -160.346289
5.592250e+09 -17.792844 95.291734 -160.640476
5.592500e+09 -17.885713 95.149519 -161.449004
5.592750e+09 -17.775293 94.876851 -161.068554
5.593000e+09 -17.930264 95.089054 -161.664828
5.593250e+09 -17.629417 95.208927 -162.372926
5.593500e+09 -17.676953 94.931165 -162.221209
5.593750e+09 -17.616701 94.971179 -162.412930
5.594000e+09 -17.858535 95.186568 -163.293657
5.594250e+09 -17.695466 95.335243 -163.758917
5.594500e+09 -17.857306 95.142473 -163.630517
5.594750e+09 -17.921185 95.184326 -164.162290
5.595000e+09 -17.922333 95.018125 -164.327430
5.595250e+09 -18.016210 94.991076 -164.697340
5.595500e+09 -17.989821 95.148791 -164.961180
5.595750e+09 -17.871707 94.801902 -165.126011
5.596000e+09 -17.858408 94.693818 -165.344134
5.596250e+09 -17.833000 94.658224 -165.182285
5.596500e+09 -17.891358 94.575710 -165.026420
5.596750e+09 -17.801261 95.045956 -165.900302
5.597000e+09 -17.948183 95.149904 -166.475067
5.597250e+09 -17.977890 94.976372 -166.728951
5.597500e+09 -18.066389 94.974204 -166.960734
5.597750e+09 -18.072892 94.957062 -167.416245
5.598000e+09 -18.019336 95.128339 -168.055585
5.598250e+09 -17.910420 95.205594 -168.704885
5.598500e+09 -17.952138 94.814083 -168.443530
5.598750e+09 -17.861590 94.840903 -168.913364
5.599000e+09 -17.919177 94.583300 -168.685220
5.599250e+09 -18.022107 94.490858 -168.945958
5.599500e+09 -17.934497 94.642384 -169.333373
5.599750e+09 -17.895488 94.707259 -169.849711
5.600000e+09 -18.044867 94.516007 -169.702885
5.600250e+09 -18.084161 94.417058 -169.973785
5.600500e+09 -18.081900 94.920879 -170.666507
5.600750e+09 -18.108377 94.687940 -170.958661
5.601000e+09 -18.151464 94.933003 -171.834289
5.601250e+09 -18.099129 95.005784 -172.239044
5.601500e+09 -18.102758 94.738455 -172.094547
5.601750e+09 -18.133401 94.409382 -172.371898
5.602000e+09 -18.193992 94.758987 -173.042290
5.602250e+09 -18.159737 94.926906 -173.482743
5.602500e+09 -18.118072 94.976009 -174.009035
5.602750e+09 -18.082666 94.556613 -174.165266
5.603000e+09 -18.176321 94.789227 -174.365498
5.603250e+09 -18.190218 94.708403 -174.469353
5.603500e+09 -18.174849 94.380681 -174.801395
5.603750e+09 -18.241128 94.743350 -175.231977
5.604000e+09 -18.176461 94.402668 -175.311408
5.604250e+09 -18.275026 94.648541 -175.935024
5.604500e+09 -18.213568 94.538759 -176.133848
5.604750e+09 -18.293149 94.694556 -176.632468
5.605000e+09 -18.265376 94.297892 -176.775919
5.605250e+09 -18.313639 94.402027 -177.087275
5.605500e+09 -18.348529 94.316057 -177.044981
5.605750e+09 -18.315953 94.195887 -177.685619
5.606000e+09 -18.349097 94.581212 -175.338782
5.606250e+09 -18.373024 94.613376 -178.530539
5.606500e+09 -18.349651 94.156267 -178.855110
5.606750e+09 -18.396959 94.464624 -179.082772
5.607000e+09 -18.428162 94.618824 -179.094960
5.607250e+09 -18.413215 94.547397 -179.704656
5.607500e+09 -18.435836 94.551380 179.970680
5.607750e+09 -18.415089 94.336474 179.836792
5.608000e+09 -18.441042 94.004074 179.245834
5.608250e+09 -18.469503 93.991503 179.171669
5.608500e+09 -18.507020 93.938438 178.767950
5.608750e+09 -18.510728 94.181902 178.252528
5.609000e+09 -18.503619 94.175054 178.510861
5.609250e+09 -18.515249 94.152081 178.038325
5.609500e+09 -18.557185 93.783329 177.342591
5.609750e+09 -18.611134 94.198381 177.030002
5.610000e+09 -18.557979 94.161167 177.113973
5.610250e+09 -18.618535 94.116815 177.012007
5.610500e+09 -18.606176 93.889024 176.294243
5.610750e+09 -18.609747 93.892533 175.714525
5.611000e+09 -18.652488 93.703692 175.436912
5.611250e+09 -18.665113 93.578804 175.133347
5.611500e+09 -18.660559 93.868611 174.925232
5.611750e+09 -18.740336 94.029399 174.692235
5.612000e+09 -18.712885 93.627039 174.254057
5.612250e+09 -18.700268 93.758359 174.245252
5.612500e+09 -18.690580 93.838658 174.137283
5.612750e+09 -18.788685 93.700830 173.302748
5.613000e+09 -18.846207 93.691994 173.193957
5.613250e+09 -18.804765 93.451878 172.317825
5.613500e+09 -18.772900 93.727714 172.412378
5.613750e+09 -18.856728 93.514189 171.823586
5.614000e+09 -18.831950 93.446606 171.486182
5.614250e+09 -18.820570 93.408007 171.262409
5.614500e+09 -18.932984 93.692492 171.067389
5.614750e+09 -18.956015 93.457068 170.708338
5.615000e+09 -19.021010 93.644659 170.415059
5.615250e+09 -19.040020 93.636475 169.967452
5.615500e+09 -19.035913 93.376552 170.068869
5.615750e+09 -18.964286 93.601260 169.886677
5.616000e+09 -19.052608 93.614635 169.414588
5.616250e+09 -19.104680 93.455011 169.213194
5.616500e+09 -19.038284 93.639865 169.190576
5.616750e+09 -18.972320 93.577154 169.227267
5.617000e+09 -18.996673 93.138688 168.261994
5.617250e+09 -19.030202 93.328420 168.461923
5.617500e+09 -19.034156 93.073295 167.718389
5.617750e+09 -19.201948 93.026060 167.161757
5.618000e+09 -19.251092 93.020146 166.826157
5.618250e+09 -19.202078 93.277759 166.777662
5.618500e+09 -19.090485 93.254671 166.573512
5.618750e+09 -19.184679 92.901402 165.882712
5.619000e+09 -19.230580 92.799495 165.672240
5.619250e+09 -19.308169 92.724120 164.897351
5.619500e+09 -19.269120 92.669248 164.757771
5.619750e+09 -19.219469 92.667728 164.202999
5.620000e+09 -19.260794 92.623129 163.935917
5.620250e+09 -19.257916 92.947741 164.233511
5.620500e+09 -19.454720 92.807299 163.766274
5.620750e+09 -19.312107 92.976536 163.465578
5.621000e+09 -19.501559 92.848563 163.156098
5.621250e+09 -19.477809 92.977517 163.433617
5.621500e+09 -19.359955 92.668737 162.639985
5.621750e+09 -19.555262 92.740013 162.279996
5.622000e+09 -19.626613 92.563204 162.135762
5.622250e+09 -19.677822 92.618758 161.695462
5.622500e+09 -19.577769 92.834137 162.163108
5.622750e+09 -19.521140 92.898886 162.511284
5.623000e+09 -19.514947 92.904216 162.200245
5.623250e+09 -19.402363 92.563374 161.413268
5.623500e+09 -19.610026 92.275281 160.530492
5.623750e+09 -19.603467 92.540948 160.716911
5.624000e+09 -19.528785 92.351638 160.171353
5.624250e+09 -19.689441 92.487408 159.923382
5.624500e+09 -19.728325 92.567536 159.850336
5.624750e+09 -19.618997 92.248488 159.390499
5.625000e+09 -19.814568 92.166673 158.346397
5.625250e+09 -19.693265 91.996296 158.138933
5.625500e+09 -19.634993 92.359554 158.077661
5.625750e+09 -19.649028 92.077100 157.858446
5.626000e+09 -19.766732 92.309509 157.767940
5.626250e+09 -19.759218 92.412699 158.003751
5.626500e+09 -19.635810 92.150216 157.367955
5.626750e+09 -19.754550 92.272727 157.646457
5.627000e+09 -19.756885 91.888248 156.471031
5.627250e+09 -19.817664 92.138902 156.626697
5.627500e+09 -19.710431 91.918807 155.966774
5.627750e+09 -19.701326 91.823083 155.158370
5.628000e+09 -20.057009 91.701475 154.654159
5.628250e+09 -20.052776 92.007806 155.092230
5.628500e+09 -19.831456 91.963979 154.984076
5.628750e+09 -19.829442 92.075033 154.896066
5.629000e+09 -19.772016 92.016538 154.499051
5.629250e+09 -19.942938 91.625192 154.369108
5.629500e+09 -20.237522 91.466525 153.468331
5.629750e+09 -20.102258 91.800817 153.816426
5.630000e+09 -20.093173 91.890157 153.617057
5.630250e+09 -19.932537 91.665886 153.158480
5.630500e+09 -20.263725 91.382832 152.517170
5.630750e+09 -20.028987 91.467859 152.414964
5.631000e+09 -20.040640 91.666144 152.174242
5.631250e+09 -20.120756 91.743384 152.517321
5.631500e+09 -20.375652 91.521806 152.377411
5.631750e+09 -20.171687 91.585348 152.132691
5.632000e+09 -20.323426 91.587134 152.142217
5.632250e+09 -20.400034 91.514822 152.126694
5.632500e+09 -20.391831 91.103760 151.249741
5.632750e+09 -20.546989 90.932040 150.112647
5.633000e+09 -20.171064 91.178629 149.269646
5.633250e+09 -20.153516 91.364660 149.583522
5.633500e+09 -20.186513 91.165573 149.456146
5.633750e+09 -20.481843 91.126776 149.175935
5.634000e+09 -20.250783 91.239342 148.543158
5.634250e+09 -20.523832 90.835198 148.466629
5.634500e+09 -20.523246 91.079630 148.732509
5.634750e+09 -20.339606 91.159540 148.237102
5.635000e+09 -20.598580 91.018660 148.822914
5.635250e+09 -20.392502 91.045935 148.312724
5.635500e+09 -20.310290 90.826792 147.208009
5.635750e+09 -20.720055 90.723506 147.265019
5.636000e+09 -20.793183 90.517697 146.591117
5.636250e+09 -20.629813 90.822119 146.764600
5.636500e+09 -20.637190 90.563147 146.206993
5.636750e+09 -20.729184 90.697493 145.866855
5.637000e+09 -20.849243 90.781226 146.697349
5.637250e+09 -21.021912 90.415330 145.776835
5.637500e+09 -20.821078 90.313120 144.932017
5.637750e+09 -20.827906 90.213867 144.041162
5.638000e+09 -20.510530 90.384985 143.313121
5.638250e+09 -20.744655 90.538300 144.030646
5.638500e+09 -21.064923 90.354417 143.926187
5.638750e+09 -21.017081 90.486691 144.530525
5.639000e+09 -20.953208 90.191668 143.912755
5.639250e+09 -21.124607 90.208595 143.919760
5.639500e+09 -21.235511 90.074734 143.043172
5.639750e+09 -21.390783 89.946025 143.035818
5.640000e+09 -21.368530 89.810107 142.063991
5.640250e+09 -21.046776 90.139309 142.082427
5.640500e+09 -21.121358 89.898571 141.463759
5.640750e+09 -21.238205 89.747402 140.957170
5.641000e+09 -21.311019 89.840231 140.931462
5.641250e+09 -21.138143 89.803980 140.261057
5.641500e+09 -20.904182 89.915575 140.112680
5.641750e+09 -20.909409 89.719542 139.198041
5.642000e+09 -21.165777 89.542521 138.421153
5.642250e+09 -21.051088 89.845089 139.199934
5.642500e+09 -21.334461 89.860781 140.054912
5.642750e+09 -21.137836 89.617412 139.412023
5.643000e+09 -20.968775 89.715186 139.327430
5.643250e+09 -21.385694 89.436119 138.250054
5.643500e+09 -21.556097 89.339668 137.704602
5.643750e+09 -21.463955 89.333389 137.052749
5.644000e+09 -21.154860 89.431259 136.752619
5.644250e+09 -21.541275 89.449474 137.775686
5.644500e+09 -21.212856 89.454120 136.918302
5.644750e+09 -21.588583 89.210372 136.602311
5.645000e+09 -21.766442 89.322541 137.539463
5.645250e+09 -21.321688 89.532563 137.076863
5.645500e+09 -21.276885 89.580480 137.240042
5.645750e+09 -21.682356 89.314962 137.724814
5.646000e+09 -21.840748 89.022123 136.617647
5.646250e+09 -21.616204 89.027760 136.038045
5.646500e+09 -21.715095 89.148279 136.413507
5.646750e+09 -21.616522 89.028105 135.406775
5.647000e+09 -21.872732 88.934369 135.642743
5.647250e+09 -21.648168 89.041801 135.761837
5.647500e+09 -21.894043 88.823913 134.716666
5.647750e+09 -21.877937 89.075120 135.068120
5.648000e+09 -21.586507 89.070305 135.123172
5.648250e+09 -21.854024 88.790028 134.414215
5.648500e+09 -22.014264 88.603186 133.875619
5.648750e+09 -22.140841 88.657170 134.132783
5.649000e+09 -21.828681 88.843292 134.215469
5.649250e+09 -22.113451 88.664196 134.533808
5.649500e+09 -22.316499 88.504895 134.085954
5.649750e+09 -22.258718 88.406222 133.202563
5.650000e+09 -22.188748 88.324157 132.321083
5.650250e+09 -22.338148 88.300329 132.367017
5.650500e+09 -22.376265 88.460190 132.997774
5.650750e+09 -22.043015 88.484442 133.227502
5.651000e+09 -22.230894 88.364417 132.473664
5.651250e+09 -21.992569 88.439839 132.591489
5.651500e+09 -22.149328 88.229032 131.476708
5.651750e+09 -22.359761 88.087081 130.919943
5.652000e+09 -22.005735 88.327268 131.215344
5.652250e+09 -22.140342 88.337732 131.521338
5.652500e+09 -21.896864 88.342905 131.261743
5.652750e+09 -22.347263 88.115623 131.008022
5.653000e+09 -22.543640 87.926060 130.189330
5.653250e+09 -22.472561 87.891132 129.361277
5.653500e+09 -22.212572 88.121829 130.172401
5.653750e+09 -22.453624 87.950173 129.776369
5.654000e+09 -22.539808 88.019260 130.240409
5.654250e+09 -22.594895 87.805216 129.647358
5.654500e+09 -22.744437 87.805223 129.896076
5.654750e+09 -22.828736 87.678565 129.408279
5.655000e+09 -22.975655 87.556472 129.363408
5.655250e+09 -22.696811 87.596659 128.330142
5.655500e+09 -22.359755 87.663613 127.613116
5.655750e+09 -22.321642 87.756943 128.649779
5.656000e+09 -22.534046 87.738969 128.499440
5.656250e+09 -22.612688 87.813927 129.056036
5.656500e+09 -22.699901 87.571287 128.249603
5.656750e+09 -22.450814 87.567807 128.778557
5.657000e+09 -22.536700 87.679493 128.575696
5.657250e+09 -22.451490 87.568070 127.973564
5.657500e+09 -22.422178 87.432350 127.556453
5.657750e+09 -22.426519 87.510110 127.686991
5.658000e+09 -22.809550 87.301603 126.856131
5.658250e+09 -23.106032 87.104519 126.369786
5.658500e+09 -22.842456 87.197113 126.426830
5.658750e+09 -23.009712 87.183143 125.820451
5.659000e+09 -23.288642 86.977028 126.074811
5.659250e+09 -22.951064 87.050434 124.331433
5.659500e+09 -23.180979 86.801986 124.127331
5.659750e+09 -22.939314 87.032580 125.633983
5.660000e+09 -22.877993 86.934353 124.036100
5.660250e+09 -22.826946 87.022023 125.454115
5.660500e+09 -22.956234 86.935439 124.400556
5.660750e+09 -22.836695 87.036549 124.893552
5.661000e+09 -22.782603 86.986572 125.135451
5.661250e+09 -23.352353 86.860678 125.344710
5.661500e+09 -23.405839 86.683848 124.436559
5.661750e+09 -23.384549 86.512213 123.325561
5.662000e+09 -23.542750 86.480315 122.718921
5.662250e+09 -23.822057 86.409519 123.432959
5.662500e+09 -23.494285 86.442020 122.602624
5.662750e+09 -23.349963 86.553280 123.337936
5.663000e+09 -23.265932 86.508364 122.918944
5.663250e+09 -23.100759 86.571156 123.151050
5.663500e+09 -23.684902 86.334487 123.031047
5.663750e+09 -23.695709 86.428151 123.427144
5.664000e+09 -23.866760 86.207827 123.528748
5.664250e+09 -23.856631 86.229819 123.105507
5.664500e+09 -23.814047 86.287958 123.117588
5.664750e+09 -23.443441 86.315765 123.780415
5.665000e+09 -23.785154 86.239068 123.317433
5.665250e+09 -23.401128 86.269588 123.793607
5.665500e+09 -23.877627 86.047154 123.607136
5.665750e+09 -24.113989 86.107387 123.569076
5.666000e+09 -23.680142 86.097870 124.528456
5.666250e+09 -24.012398 86.059821 123.744623
5.666500e+09 -24.213850 85.996661 124.054484
5.666750e+09 -24.193592 85.982604 123.763281
5.667000e+09 -24.177389 85.761285 123.052502
5.667250e+09 -24.295855 85.636060 122.243610
5.667500e+09 -24.384462 85.590913 121.870565
5.667750e+09 -24.248371 85.672381 122.474921
5.668000e+09 -23.815886 85.671206 123.389773
5.668250e+09 -23.708855 85.785631 122.454354
5.668500e+09 -24.179428 85.717067 122.423174
5.668750e+09 -24.276709 85.644641 122.607344
5.669000e+09 -24.503770 85.568603 123.015155
5.669250e+09 -23.950455 85.561794 122.895385
5.669500e+09 -23.785551 85.460498 121.494022
5.669750e+09 -23.955693 85.515635 122.487721
5.670000e+09 -24.483734 85.435210 122.333138
5.670250e+09 -24.642055 85.316220 121.621752
5.670500e+09 -24.197433 85.307587 121.793403
5.670750e+09 -24.071205 85.271184 122.640077
5.671000e+09 -24.052222 85.503197 122.740257
5.671250e+09 -24.070853 85.291766 122.382859
5.671500e+09 -24.120612 85.410539 122.759009
5.671750e+09 -24.420006 85.417742 121.831602
5.672000e+09 -24.790967 85.189719 122.165564
5.672250e+09 -24.499949 85.091888 122.889617
5.672500e+09 -24.582330 85.174638 122.180258
5.672750e+09 -24.866650 84.896274 122.132806
5.673000e+09 -24.514957 84.879516 122.028344
5.673250e+09 -24.317104 85.068835 122.113623
5.673500e+09 -24.357103 85.044245 122.423610
5.673750e+09 -24.693040 84.776095 120.847980
5.674000e+09 -24.916072 84.843849 120.248578
5.674250e+09 -25.172695 84.688736 120.787073
5.674500e+09 -24.675726 84.780887 119.134914
5.674750e+09 -24.524426 84.690327 120.309930
5.675000e+09 -24.736068 84.735614 120.030882
5.675250e+09 -24.783007 84.618387 119.891003
5.675500e+09 -25.149226 84.519336 119.561934
5.675750e+09 -24.715089 84.668467 119.925666
5.676000e+09 -25.112362 84.466404 119.823250
5.676250e+09 -25.384012 84.413970 120.549588
5.676500e+09 -25.433373 84.256805 120.036859
5.676750e+09 -25.228916 84.120465 118.815177
5.677000e+09 -24.990730 84.379981 119.785314
5.677250e+09 -24.796091 84.477696 120.372070
5.677500e+09 -25.266647 84.244774 119.537223
5.677750e+09 -25.311810 84.214756 120.668516
5.678000e+09 -25.477523 84.075086 120.166431
5.678250e+09 -25.539746 84.127343 121.498383
5.678500e+09 -25.547621 84.113962 120.341518
5.678750e+09 -25.772622 83.826969 120.457284
5.679000e+09 -25.280513 83.867080 120.271697
5.679250e+09 -25.016293 84.044366 118.853059
5.679500e+09 -25.204053 83.890753 118.147641
5.679750e+09 -25.417230 83.827960 118.270008
5.680000e+09 -25.714272 83.900950 118.238446
5.680250e+09 -25.892510 83.727192 118.879301
5.680500e+09 -25.716337 83.684542 118.781246
5.680750e+09 -25.296002 83.743766 117.785788
5.681000e+09 -25.572570 83.626721 119.371819
5.681250e+09 -25.874904 83.742574 119.398262
5.681500e+09 -25.813145 83.621032 120.206537
5.681750e+09 -25.472149 83.820190 121.036864
5.682000e+09 -25.364375 83.728475 120.257328
5.682250e+09 -25.915834 83.694569 120.007751
5.682500e+09 -26.190673 83.501514 120.221151
5.682750e+09 -26.098846 83.302972 119.726292
5.683000e+09 -25.741892 83.355698 118.362413
5.683250e+09 -26.073810 83.299267 118.616424
5.683500e+09 -26.277619 83.459616 119.117163
5.683750e+09 -26.171477 83.154226 119.196853
5.684000e+09 -25.970405 83.103656 118.119956
5.684250e+09 -25.794057 83.151976 119.419330
5.684500e+09 -25.771756 83.218559 120.475349
5.684750e+09 -25.787020 83.247036 118.922075
5.685000e+09 -26.230425 83.152523 119.119110
5.685250e+09 -26.220740 83.006253 118.859376
5.685500e+09 -26.409914 82.865157 118.673946
5.685750e+09 -25.922989 82.894038 117.848776
5.686000e+09 -26.180465 82.941773 120.427636
5.686250e+09 -25.807095 83.033591 119.184263
5.686500e+09 -25.947757 83.025049 120.626854
5.686750e+09 -26.113569 82.947174 121.228368
5.687000e+09 -26.206586 83.071641 121.917912
5.687250e+09 -26.463150 82.757252 120.655138
5.687500e+09 -26.344904 82.718128 119.158925
5.687750e+09 -26.632451 82.758643 119.398997
5.688000e+09 -26.342396 82.820702 120.510606
5.688250e+09 -26.461905 82.593013 120.979265
5.688500e+09 -26.588819 82.680668 122.076810
5.688750e+09 -26.289343 82.764344 122.295376
5.689000e+09 -26.372764 82.670163 120.647406
5.689250e+09 -26.402086 82.562097 120.435628
5.689500e+09 -26.510656 82.606000 121.767117
5.689750e+09 -26.805990 82.560470 121.042084
5.690000e+09 -26.551786 82.567303 120.269003
5.690250e+09 -26.947149 82.403872 120.682475
5.690500e+09 -26.608495 82.381079 120.398731
5.690750e+09 -26.555351 82.402396 121.638182
5.691000e+09 -26.921989 82.425230 120.667521
5.691250e+09 -27.235897 82.159112 121.648622
5.691500e+09 -27.234255 82.072904 120.990719
5.691750e+09 -27.251132 82.042489 120.510317
5.692000e+09 -26.903452 82.077160 119.178910
5.692250e+09 -26.800498 82.143757 119.660390
5.692500e+09 -26.864580 81.936019 119.414794
5.692750e+09 -27.147857 81.923373 120.484361
5.693000e+09 -26.827493 82.076516 121.656019
5.693250e+09 -27.253493 82.039139 121.794815
5.693500e+09 -27.122116 82.013654 122.940772
5.693750e+09 -26.931472 82.068796 121.517284
5.694000e+09 -27.220715 81.717497 122.446739
5.694250e+09 -27.261687 81.821604 121.785415
5.694500e+09 -27.184451 82.010667 123.624389
5.694750e+09 -26.998722 81.877632 121.871383
5.695000e+09 -26.741026 81.954591 122.196108
5.695250e+09 -26.862476 82.008286 122.778885
5.695500e+09 -27.358555 81.716418 123.459217
5.695750e+09 -27.472784 81.751436 123.304012
5.696000e+09 -27.546337 81.809022 122.421398
5.696250e+09 -27.288941 81.822493 124.102706
5.696500e+09 -27.642543 81.715526 124.294255
5.696750e+09 -27.461456 81.637152 124.467046
5.697000e+09 -27.695740 81.616122 123.889480
5.697250e+09 -27.415477 81.617290 123.965242
5.697500e+09 -27.699471 81.772326 123.522035
5.697750e+09 -27.601400 81.621402 125.433393
5.698000e+09 -27.862072 81.724858 124.342952
5.698250e+09 -27.478133 81.461636 125.073130
5.698500e+09 -27.370504 81.533202 125.510733
5.698750e+09 -27.456550 81.549617 126.069331
5.699000e+09 -27.852986 81.662291 124.866326
5.699250e+09 -27.989683 81.278912 125.657374
5.699500e+09 -28.024971 81.305945 126.937617
5.699750e+09 -27.495535 81.445301 126.147286
5.700000e+09 -28.087292 81.234083 125.645989
