! S21 sweep bladeRF - TX0=38 db | RX0=50 db | RX1=50 db - 2025-12-11T11:46:43
# Frequency [MHz], |S21| [db], |Mag_meas| [db], Phase [deg]
5.100000e+09 3.282262 129.609333 -70.793656
5.100250e+09 3.657573 129.996010 -68.143148
5.100500e+09 3.113519 130.095496 -65.845594
5.100750e+09 3.274108 130.298505 -64.683351
5.101000e+09 3.526755 130.252949 -64.477812
5.101250e+09 3.774217 130.093532 -66.710241
5.101500e+09 3.308646 129.727915 -70.466547
5.101750e+09 3.952207 130.352062 -68.226992
5.102000e+09 3.776440 130.034982 -69.716464
5.102250e+09 3.134579 129.675644 -71.227729
5.102500e+09 3.429213 130.300960 -65.483663
5.102750e+09 3.998432 130.309916 -68.188173
5.103000e+09 3.592387 129.994163 -67.230674
5.103250e+09 3.063198 129.861998 -65.385310
5.103500e+09 3.558874 130.428165 -64.354772
5.103750e+09 4.135180 130.399963 -63.108827
5.104000e+09 3.402865 130.281875 -66.585435
5.104250e+09 3.932873 130.103215 -67.770872
5.104500e+09 3.322053 129.769451 -67.241259
5.104750e+09 3.239157 129.692348 -66.629066
5.105000e+09 3.848948 129.943035 -68.581862
5.105250e+09 3.244144 129.723712 -70.917520
5.105500e+09 3.153697 129.738212 -70.910091
5.105750e+09 3.799278 130.421120 -67.179467
5.106000e+09 3.708024 130.432885 -67.079222
5.106250e+09 4.149600 130.221264 -67.581832
5.106500e+09 3.707407 130.498482 -65.418938
5.106750e+09 3.893118 129.929119 -68.655943
5.107000e+09 3.200335 129.939768 -66.539719
5.107250e+09 4.004504 130.201814 -66.520731
5.107500e+09 3.479021 130.203838 -65.683521
5.107750e+09 4.147122 130.426549 -63.735675
5.108000e+09 3.899910 130.453571 -66.570065
5.108250e+09 3.506151 130.213614 -65.422075
5.108500e+09 4.014754 130.121458 -66.678289
5.108750e+09 3.960228 129.928108 -70.535960
5.109000e+09 3.140432 129.819308 -67.967774
5.109250e+09 4.138410 130.052773 -69.220409
5.109500e+09 3.460034 130.060637 -68.446727
5.109750e+09 3.845254 129.756951 -70.562163
5.110000e+09 3.897672 130.155015 -67.104133
5.110250e+09 3.746212 130.098783 -69.426802
5.110500e+09 4.184383 130.092339 -68.960069
5.110750e+09 3.594958 129.886456 -67.144045
5.111000e+09 3.842749 129.699698 -71.043711
5.111250e+09 3.989452 130.118746 -67.083889
5.111500e+09 3.958086 130.477413 -66.149791
5.111750e+09 4.041558 130.513029 -63.642108
5.112000e+09 4.317084 130.406205 -64.429527
5.112250e+09 3.857579 130.384036 -66.304313
5.112500e+09 3.975505 130.448428 -64.637658
5.112750e+09 4.308830 130.075922 -69.271136
5.113000e+09 3.672886 130.001979 -67.401327
5.113250e+09 3.927123 130.106379 -66.668618
5.113500e+09 3.983277 130.074693 -66.767265
5.113750e+09 3.687667 130.162500 -66.505665
5.114000e+09 4.006391 130.192420 -69.150511
5.114250e+09 3.882481 130.282194 -68.421529
5.114500e+09 3.826353 130.265245 -66.920090
5.114750e+09 4.705420 130.379173 -66.465761
5.115000e+09 4.261234 130.044770 -71.269317
5.115250e+09 3.790336 129.736600 -68.747904
5.115500e+09 4.476073 130.398899 -65.182495
5.115750e+09 4.190931 130.217552 -70.183442
5.116000e+09 4.161668 129.798933 -71.759076
5.116250e+09 4.614104 130.386965 -69.452264
5.116500e+09 4.687676 130.353803 -70.546123
5.116750e+09 3.962247 129.874583 -72.278530
5.117000e+09 4.108220 130.217314 -70.824144
5.117250e+09 4.607382 130.200668 -69.495090
5.117500e+09 4.432597 130.066015 -72.454768
5.117750e+09 3.920649 129.724206 -73.517270
5.118000e+09 3.926255 129.689286 -74.157594
5.118250e+09 4.532992 130.213414 -71.925025
5.118500e+09 4.078983 129.990109 -72.620306
5.118750e+09 4.348514 130.003008 -69.126451
5.119000e+09 3.833246 130.090567 -67.949554
5.119250e+09 4.131511 130.142286 -70.936817
5.119500e+09 4.426204 130.153500 -68.647786
5.119750e+09 4.257169 129.725684 -71.216501
5.120000e+09 3.949587 129.786264 -73.053578
5.120250e+09 4.706708 130.141251 -70.893815
5.120500e+09 4.161055 129.745776 -69.623762
5.120750e+09 4.742530 130.246195 -71.327472
5.121000e+09 4.372068 129.793073 -72.474378
5.121250e+09 3.721276 129.854328 -69.522619
5.121500e+09 4.665169 130.134331 -69.369668
5.121750e+09 4.104991 130.248936 -67.456649
5.122000e+09 4.472493 130.183224 -71.265658
5.122250e+09 4.144849 130.165282 -71.043207
5.122500e+09 4.358318 130.458954 -68.114792
5.122750e+09 4.260318 130.243567 -67.391459
5.123000e+09 4.281284 130.378931 -66.445410
5.123250e+09 4.827884 130.143651 -71.242086
5.123500e+09 4.394916 129.966608 -74.142333
5.123750e+09 4.228186 129.937438 -74.297461
5.124000e+09 4.086815 129.970601 -69.063595
5.124250e+09 4.387507 129.751364 -70.195244
5.124500e+09 4.996711 130.485257 -68.461362
5.124750e+09 4.607468 130.434150 -69.519343
5.125000e+09 4.597654 130.378321 -68.152242
5.125250e+09 4.769523 130.094856 -69.382217
5.125500e+09 4.375070 129.713243 -73.189733
5.125750e+09 4.361912 130.298307 -67.574188
5.126000e+09 4.901847 130.422674 -69.557075
5.126250e+09 4.466652 130.140448 -67.813798
5.126500e+09 4.322417 130.206056 -69.965244
5.126750e+09 4.825406 130.144648 -73.366706
5.127000e+09 4.237190 130.148982 -69.379445
5.127250e+09 4.995196 130.187951 -71.101846
5.127500e+09 4.759798 129.912918 -72.794276
5.127750e+09 3.964888 129.862713 -69.854044
5.128000e+09 4.950390 130.094594 -71.702299
5.128250e+09 4.360980 129.731331 -74.601670
5.128500e+09 4.661804 130.059476 -74.307978
5.128750e+09 4.450419 129.790288 -72.396787
5.129000e+09 4.145132 129.994324 -69.750320
5.129250e+09 4.765895 130.110232 -68.577163
5.129500e+09 4.568857 130.387455 -70.343083
5.129750e+09 5.021874 130.176168 -70.974332
5.130000e+09 4.677958 130.045930 -69.617072
5.130250e+09 4.398336 130.157073 -70.547789
5.130500e+09 4.648501 130.453580 -68.031262
5.130750e+09 4.480035 130.281468 -70.487952
5.131000e+09 4.547385 130.208789 -68.303899
5.131250e+09 4.620761 130.295470 -67.966814
5.131500e+09 4.890829 130.321943 -67.606113
5.131750e+09 4.715422 130.418712 -70.289134
5.132000e+09 4.606634 130.253583 -71.706047
5.132250e+09 4.818551 130.484375 -73.164665
5.132500e+09 5.061390 130.071807 -73.054715
5.132750e+09 4.739213 129.732135 -74.143373
5.133000e+09 4.432812 129.778591 -71.301949
5.133250e+09 4.490433 129.720090 -74.001836
5.133500e+09 4.889681 130.478418 -71.158380
5.133750e+09 5.345787 130.350794 -73.578993
5.134000e+09 4.565259 130.227895 -70.166904
5.134250e+09 5.051460 130.068140 -73.075439
5.134500e+09 4.611846 129.817890 -71.700805
5.134750e+09 4.389209 129.980000 -71.692502
5.135000e+09 4.792920 130.337758 -68.632928
5.135250e+09 5.008461 130.496559 -71.034244
5.135500e+09 5.132990 130.112037 -72.276235
5.135750e+09 4.662702 130.067220 -73.998653
5.136000e+09 4.836702 130.374682 -72.208619
5.136250e+09 4.963020 130.518940 -69.786912
5.136500e+09 5.411668 130.446358 -73.609982
5.136750e+09 4.869120 130.116568 -73.301065
5.137000e+09 4.910863 129.818151 -74.604405
5.137250e+09 4.646032 129.672814 -75.750614
5.137500e+09 4.553422 130.029866 -71.673667
5.137750e+09 5.183079 130.046551 -73.826092
5.138000e+09 4.699451 130.089503 -71.030932
5.138250e+09 5.144663 130.456734 -70.215415
5.138500e+09 5.384162 130.428119 -70.009961
5.138750e+09 5.060292 130.423124 -71.637923
5.139000e+09 5.470325 130.389549 -72.183968
5.139250e+09 5.056593 130.265738 -70.530222
5.139500e+09 5.376955 130.167141 -73.055356
5.139750e+09 4.916181 129.726598 -75.221284
5.140000e+09 5.084420 130.267994 -72.536060
5.140250e+09 5.302606 130.177512 -73.297673
5.140500e+09 5.042163 130.096155 -74.118414
5.140750e+09 4.928345 130.198202 -71.469453
5.141000e+09 5.617015 130.404750 -70.622372
5.141250e+09 5.406167 130.477770 -69.312161
5.141500e+09 5.607418 130.402189 -70.279495
5.141750e+09 5.369336 130.202809 -73.067913
5.142000e+09 5.063208 129.718516 -75.646655
5.142250e+09 5.504070 130.089683 -75.047594
5.142500e+09 4.927823 129.723234 -76.429023
5.142750e+09 5.573829 130.221808 -74.521392
5.143000e+09 5.392464 130.426555 -72.742901
5.143250e+09 5.682932 130.397733 -76.557798
5.143500e+09 5.426252 130.135053 -74.299577
5.143750e+09 5.093880 130.208521 -72.130557
5.144000e+09 5.674354 130.458603 -70.177108
5.144250e+09 5.771979 130.370283 -72.067275
5.144500e+09 5.807511 130.348780 -73.603074
5.144750e+09 5.836140 130.400396 -71.845277
5.145000e+09 5.476031 130.340712 -73.080120
5.145250e+09 5.550985 130.416548 -73.441641
5.145500e+09 5.585423 130.179333 -75.449120
5.145750e+09 5.346495 130.127405 -73.704522
5.146000e+09 5.450268 130.043616 -75.578339
5.146250e+09 5.123146 129.724807 -77.650502
5.146500e+09 5.673042 130.432748 -74.707167
5.146750e+09 5.730368 130.520046 -77.632179
5.147000e+09 5.500325 130.031010 -77.120401
5.147250e+09 4.854733 129.612457 -77.883947
5.147500e+09 5.350662 130.334248 -73.455151
5.147750e+09 5.523225 130.316841 -73.126097
5.148000e+09 5.626143 130.098099 -75.750139
5.148250e+09 5.294875 130.111523 -75.177501
5.148500e+09 5.520331 129.988696 -77.141697
5.148750e+09 5.137330 129.824262 -75.413996
5.149000e+09 5.460958 130.244937 -73.469744
5.149250e+09 5.641749 130.089514 -75.370532
5.149500e+09 5.358455 129.663593 -77.884318
5.149750e+09 6.137447 130.404526 -73.608552
5.150000e+09 5.862728 130.156964 -76.002310
5.150250e+09 5.545959 130.051309 -75.188036
5.150500e+09 5.521770 129.885737 -76.544461
5.150750e+09 5.385398 129.627182 -78.279481
5.151000e+09 6.129088 130.350709 -74.669175
5.151250e+09 5.842827 130.407069 -74.804412
5.151500e+09 5.999543 130.325031 -75.453748
5.151750e+09 5.757124 130.007270 -77.091486
5.152000e+09 5.550033 130.181712 -74.198476
5.152250e+09 5.785960 130.175186 -76.669790
5.152500e+09 5.489675 130.197630 -74.854789
5.152750e+09 5.690430 130.040846 -76.784280
5.153000e+09 5.717232 129.965696 -78.255167
5.153250e+09 5.307986 129.803117 -78.600667
5.153500e+09 5.485967 130.112269 -76.132026
5.153750e+09 5.764685 130.047807 -78.071203
5.154000e+09 5.866483 130.487847 -75.228482
5.154250e+09 5.793362 130.349685 -78.030466
5.154500e+09 5.724849 130.197858 -76.031463
5.154750e+09 5.929677 130.478823 -74.526468
5.155000e+09 5.832649 130.190668 -76.363332
5.155250e+09 5.769358 129.929951 -78.293377
5.155500e+09 5.297650 129.748168 -79.196264
5.155750e+09 5.321088 129.939784 -76.023894
5.156000e+09 5.854577 130.092745 -77.241667
5.156250e+09 5.952427 130.434559 -74.500716
5.156500e+09 5.670601 130.263832 -74.823291
5.156750e+09 6.146023 130.399829 -75.234824
5.157000e+09 6.085580 130.148606 -76.840767
5.157250e+09 5.993926 130.318775 -75.232100
5.157500e+09 6.171087 130.363089 -75.566532
5.157750e+09 6.079106 130.187577 -76.623575
5.158000e+09 6.034390 130.079979 -77.358352
5.158250e+09 5.834218 129.765398 -79.100292
5.158500e+09 5.923184 130.298941 -75.129499
5.158750e+09 6.025259 130.459858 -73.891581
5.159000e+09 6.264375 130.389674 -75.552986
5.159250e+09 6.437739 130.368585 -75.753842
5.159500e+09 6.515540 130.404868 -76.359267
5.159750e+09 6.219961 130.106278 -79.148015
5.160000e+09 5.738023 129.710689 -81.157458
5.160250e+09 6.297682 130.541507 -77.647344
5.160500e+09 5.959543 130.248158 -78.393511
5.160750e+09 5.938919 129.894111 -80.186411
5.161000e+09 5.850568 129.739134 -80.543918
5.161250e+09 5.789503 129.995670 -77.453046
5.161500e+09 6.397337 130.410348 -76.243863
5.161750e+09 6.172732 130.418531 -76.638936
5.162000e+09 5.994176 130.322376 -77.748797
5.162250e+09 6.421519 130.371062 -78.052055
5.162500e+09 6.323892 130.105901 -79.457241
5.162750e+09 6.043188 130.177424 -77.106194
5.163000e+09 6.350683 130.482257 -79.555146
5.163250e+09 6.486410 130.375576 -78.364933
5.163500e+09 6.245556 130.444589 -75.615547
5.163750e+09 6.243401 130.292453 -79.882869
5.164000e+09 5.839550 129.791701 -82.004655
5.164250e+09 5.740078 129.880317 -79.156326
5.164500e+09 6.256106 130.295285 -78.128629
5.164750e+09 6.274898 130.460743 -76.934243
5.165000e+09 6.288600 130.279011 -78.975347
5.165250e+09 6.202701 130.232019 -77.394237
5.165500e+09 6.377921 130.430738 -78.315185
5.165750e+09 6.451102 130.452205 -78.101323
5.166000e+09 6.706390 130.431100 -76.719745
5.166250e+09 6.475394 130.286593 -80.055447
5.166500e+09 6.254639 130.323305 -78.233292
5.166750e+09 6.595252 130.269864 -80.029994
5.167000e+09 6.425761 130.435736 -77.529347
5.167250e+09 6.793800 130.475935 -77.233222
5.167500e+09 6.767301 130.306743 -81.885611
5.167750e+09 6.127159 130.041628 -81.603841
5.168000e+09 6.145134 129.830755 -81.928676
5.168250e+09 6.095988 130.040853 -81.982861
5.168500e+09 6.083271 130.050193 -82.552475
5.168750e+09 6.258472 130.290645 -79.474006
5.169000e+09 6.231978 130.220592 -81.374576
5.169250e+09 6.245952 130.066974 -83.279702
5.169500e+09 6.366014 130.081727 -81.512329
5.169750e+09 6.229237 130.083947 -82.407110
5.170000e+09 6.158292 130.054592 -83.180924
5.170250e+09 6.350564 130.171009 -80.897067
5.170500e+09 6.531388 130.186813 -80.663860
5.170750e+09 6.370713 129.853289 -83.385618
5.171000e+09 6.282817 130.090354 -81.230345
5.171250e+09 6.471863 130.024404 -83.388241
5.171500e+09 6.318472 129.711127 -83.876444
5.171750e+09 6.293549 129.640460 -84.464915
5.172000e+09 7.100048 130.435247 -80.291552
5.172250e+09 6.715271 130.424104 -79.854962
5.172500e+09 6.545345 130.256581 -81.865186
5.172750e+09 6.625247 130.059700 -84.213077
5.173000e+09 6.475417 130.038786 -85.098002
5.173250e+09 6.267315 130.057137 -83.282491
5.173500e+09 6.587725 130.027990 -84.131661
5.173750e+09 6.135380 129.824148 -83.864590
5.174000e+09 6.310548 130.122232 -83.828458
5.174250e+09 6.436167 129.862649 -85.506879
5.174500e+09 6.165330 129.691156 -86.632384
5.174750e+09 6.754666 130.337284 -81.938705
5.175000e+09 6.969367 130.644778 -84.660891
5.175250e+09 6.532086 130.247104 -83.794254
5.175500e+09 6.589904 130.276071 -81.846827
5.175750e+09 6.844164 130.197934 -84.179076
5.176000e+09 6.588811 130.185215 -82.793276
5.176250e+09 6.758415 130.081668 -85.173521
5.176500e+09 6.871237 130.002540 -86.054363
5.176750e+09 6.798470 130.284391 -83.072178
5.177000e+09 6.826397 130.423782 -81.913791
5.177250e+09 6.828502 130.497174 -81.033454
5.177500e+09 6.533268 130.154234 -85.874084
5.177750e+09 6.241312 129.756053 -86.821234
5.178000e+09 6.368395 129.953376 -84.861900
5.178250e+09 6.663097 130.270348 -82.716782
5.178500e+09 6.952838 130.260749 -83.663100
5.178750e+09 7.252567 130.329522 -84.264868
5.179000e+09 7.327422 130.331033 -84.808901
5.179250e+09 6.758042 130.140786 -84.568344
5.179500e+09 7.043211 130.457254 -81.676895
5.179750e+09 7.373919 130.469301 -81.063201
5.180000e+09 7.240573 130.488942 -81.520622
5.180250e+09 7.089253 130.280804 -86.633348
5.180500e+09 6.725622 130.124277 -86.073571
5.180750e+09 6.618767 129.979187 -87.474438
5.181000e+09 6.676755 129.737204 -87.907351
5.181250e+09 7.544449 130.468425 -85.893694
5.181500e+09 7.334014 130.375954 -84.650329
5.181750e+09 7.073364 130.374677 -85.339785
5.182000e+09 7.121505 129.911384 -83.330142
5.182250e+09 7.263531 130.258611 -84.679421
5.182500e+09 7.234586 130.290114 -83.805818
5.182750e+09 7.257802 130.330180 -83.062529
5.183000e+09 7.003157 130.278413 -84.329350
5.183250e+09 7.167888 130.216587 -84.685388
5.183500e+09 6.984363 129.960224 -87.390891
5.183750e+09 6.758925 129.625738 -89.472758
5.184000e+09 7.464676 130.225271 -86.377175
5.184250e+09 7.361221 130.161610 -88.039074
5.184500e+09 6.919812 130.059262 -88.332913
5.184750e+09 7.158978 130.000643 -88.448890
5.185000e+09 7.326217 130.026249 -88.769390
5.185250e+09 6.981225 129.683579 -90.674311
5.185500e+09 7.457340 130.494849 -88.863254
5.185750e+09 7.299197 130.223919 -86.384969
5.186000e+09 7.246527 130.204757 -88.569173
5.186250e+09 7.076638 130.089349 -90.091099
5.186500e+09 6.936210 130.074212 -89.306637
5.186750e+09 7.292537 130.397666 -86.094845
5.187000e+09 7.404089 130.510579 -84.186563
5.187250e+09 7.229607 130.334143 -87.057369
5.187500e+09 7.020440 130.084881 -89.308501
5.187750e+09 7.251901 129.997691 -89.490411
5.188000e+09 6.858466 129.821592 -89.543242
5.188250e+09 6.727481 129.732508 -91.051257
5.188500e+09 7.199008 130.221026 -87.539848
5.188750e+09 7.224401 130.005692 -90.420260
5.189000e+09 7.090022 130.018253 -90.623296
5.189250e+09 7.291714 130.100863 -91.543356
5.189500e+09 7.101526 129.894561 -88.871554
5.189750e+09 7.294138 130.212466 -87.794453
5.190000e+09 7.481128 130.488351 -85.734493
5.190250e+09 7.339929 130.314037 -86.663945
5.190500e+09 7.435107 130.057108 -89.758778
5.190750e+09 7.087381 129.874503 -88.560483
5.191000e+09 7.261773 130.182958 -88.380480
5.191250e+09 7.557930 130.445379 -89.388963
5.191500e+09 7.290303 130.237720 -88.991481
5.191750e+09 7.154635 130.002964 -91.268441
5.192000e+09 6.947224 129.695418 -93.394869
5.192250e+09 7.259204 129.720322 -92.422010
5.192500e+09 7.415554 129.745352 -91.847232
5.192750e+09 7.291797 129.878827 -89.160509
5.193000e+09 7.578063 129.952485 -91.086060
5.193250e+09 7.447025 129.946021 -89.002662
5.193500e+09 7.469809 130.084091 -91.526147
5.193750e+09 7.245281 129.686377 -93.661128
5.194000e+09 7.837022 130.449354 -87.676123
5.194250e+09 7.375279 129.919089 -86.917449
5.194500e+09 8.038877 130.337545 -91.929366
5.194750e+09 7.845925 130.408814 -89.375449
5.195000e+09 7.655675 130.365591 -89.916753
5.195250e+09 7.723736 130.445072 -88.934483
5.195500e+09 7.678288 130.421978 -90.557679
5.195750e+09 7.905277 130.613443 -92.442652
5.196000e+09 7.936191 130.298037 -90.038566
5.196250e+09 8.092989 130.525149 -88.175966
5.196500e+09 7.833682 130.149840 -92.473651
5.196750e+09 7.302508 129.728836 -94.376801
5.197000e+09 7.708135 130.274681 -91.386222
5.197250e+09 7.973842 130.307316 -93.394938
5.197500e+09 8.113248 130.223499 -92.831554
5.197750e+09 7.998186 130.262592 -90.443771
5.198000e+09 8.104058 130.447030 -92.416984
5.198250e+09 7.747949 130.247649 -91.511384
5.198500e+09 7.955312 130.475122 -92.992441
5.198750e+09 8.009734 130.549391 -94.164103
5.199000e+09 7.622806 130.040335 -93.991215
5.199250e+09 7.738441 130.045734 -92.318353
5.199500e+09 7.665744 130.021577 -94.198934
5.199750e+09 7.716783 130.120350 -92.166697
5.200000e+09 7.919643 130.321926 -90.535063
5.200250e+09 7.962330 130.346316 -92.838725
5.200500e+09 8.038305 130.225171 -91.258006
5.200750e+09 8.147406 130.367262 -91.996488
5.201000e+09 8.214297 130.547553 -91.163289
5.201250e+09 7.798689 130.201381 -92.911434
5.201500e+09 7.806406 130.222744 -92.900319
5.201750e+09 7.718522 130.057043 -95.111799
5.202000e+09 7.878535 130.073588 -96.427632
5.202250e+09 7.684805 129.930748 -96.241761
5.202500e+09 7.654223 129.940902 -96.498897
5.202750e+09 7.517546 129.705399 -97.931115
5.203000e+09 7.734952 129.634815 -99.189000
5.203250e+09 8.461375 130.348043 -93.043288
5.203500e+09 8.556762 130.244477 -94.399882
5.203750e+09 8.075988 130.443108 -92.193669
5.204000e+09 8.285918 130.336574 -95.580744
5.204250e+09 8.479283 130.512698 -95.384370
5.204500e+09 8.626967 130.506336 -94.777930
5.204750e+09 8.302542 130.456981 -91.646297
5.205000e+09 8.214944 130.381261 -93.840252
5.205250e+09 8.618443 130.392179 -93.534439
5.205500e+09 8.409018 130.445481 -93.289730
5.205750e+09 8.282017 130.432264 -94.006317
5.206000e+09 8.532680 130.449235 -93.104033
5.206250e+09 8.560183 130.135845 -96.759908
5.206500e+09 8.081878 130.076336 -95.642180
5.206750e+09 8.807208 130.528472 -95.751112
5.207000e+09 8.629998 130.541602 -96.044501
5.207250e+09 8.656062 130.210060 -95.033997
5.207500e+09 8.819834 130.263842 -95.966333
5.207750e+09 8.633309 130.294753 -93.891275
5.208000e+09 8.666697 130.396082 -93.191883
5.208250e+09 8.505490 130.471477 -93.321090
5.208500e+09 8.241847 130.010094 -99.274344
5.208750e+09 7.741265 129.608999 -100.940534
5.209000e+09 8.534368 130.369980 -96.562324
5.209250e+09 8.775008 130.391908 -97.595276
5.209500e+09 8.654680 130.373235 -97.527602
5.209750e+09 8.744955 130.181831 -99.904243
5.210000e+09 8.390117 129.857146 -101.839686
5.210250e+09 8.348312 129.682740 -102.787589
5.210500e+09 9.172326 130.419129 -98.337483
5.210750e+09 8.935345 130.191657 -99.713827
5.211000e+09 8.851076 130.123926 -100.822278
5.211250e+09 8.696428 130.138986 -98.162455
5.211500e+09 8.957848 130.217315 -99.541144
5.211750e+09 8.957860 130.242766 -96.718578
5.212000e+09 8.612706 130.198984 -99.526214
5.212250e+09 8.485031 130.200655 -98.096406
5.212500e+09 8.388739 130.149510 -100.128713
5.212750e+09 8.579200 130.054905 -102.024556
5.213000e+09 8.330551 130.008968 -100.878433
5.213250e+09 8.875154 130.155301 -99.419978
5.213500e+09 8.679367 129.966180 -101.836906
5.213750e+09 8.770950 129.869080 -102.002918
5.214000e+09 8.750360 130.017983 -98.998271
5.214250e+09 8.617867 130.170902 -101.320526
5.214500e+09 8.929599 130.108303 -101.116250
5.214750e+09 9.106228 130.136294 -101.140710
5.215000e+09 8.464835 129.896850 -102.153825
5.215250e+09 8.176672 129.630719 -104.443074
5.215500e+09 8.913617 130.059681 -103.107173
5.215750e+09 8.335978 129.736525 -104.302362
5.216000e+09 8.654420 129.763026 -103.721090
5.216250e+09 9.026338 129.993013 -103.718769
5.216500e+09 8.772293 130.062777 -104.703986
5.216750e+09 8.891881 130.296014 -100.823200
5.217000e+09 8.733497 130.223629 -102.101282
5.217250e+09 8.641067 130.158689 -103.341694
5.217500e+09 8.852357 129.880713 -104.488313
5.217750e+09 8.631074 129.679028 -106.258622
5.218000e+09 8.374749 129.698279 -106.066604
5.218250e+09 9.075746 130.498344 -101.442686
5.218500e+09 9.180395 130.166778 -103.017405
5.218750e+09 9.303684 130.112403 -103.411327
5.219000e+09 9.665998 130.439345 -100.667986
5.219250e+09 9.154257 130.366652 -102.492622
5.219500e+09 9.502539 130.415790 -101.913753
5.219750e+09 9.440801 130.354123 -102.732228
5.220000e+09 9.448985 130.510947 -104.992760
5.220250e+09 9.418265 130.378948 -100.447939
5.220500e+09 9.422456 130.384016 -101.004744
5.220750e+09 9.346611 130.551306 -106.009179
5.221000e+09 9.518035 130.383275 -103.190815
5.221250e+09 9.247688 130.301682 -105.434154
5.221500e+09 9.473889 130.226108 -105.440058
5.221750e+09 9.044464 130.142196 -104.706379
5.222000e+09 9.311844 130.264863 -102.086188
5.222250e+09 9.501627 130.367994 -103.392143
5.222500e+09 9.629102 130.303782 -102.878715
5.222750e+09 9.288928 130.304548 -102.852285
5.223000e+09 9.534454 130.417215 -104.260160
5.223250e+09 9.307884 130.384138 -103.521121
5.223500e+09 9.444160 130.336353 -103.285439
5.223750e+09 9.386573 130.403498 -102.737544
5.224000e+09 9.105594 130.202018 -105.477839
5.224250e+09 9.441457 130.256917 -102.890068
5.224500e+09 9.719348 130.360508 -104.322363
5.224750e+09 9.438952 130.161711 -106.609798
5.225000e+09 9.178138 130.121956 -105.966745
5.225250e+09 9.545334 130.443312 -103.534927
5.225500e+09 9.395105 130.322821 -106.585448
5.225750e+09 9.621821 130.393860 -104.024864
5.226000e+09 9.597009 130.345223 -104.968107
5.226250e+09 9.850450 130.303520 -106.037308
5.226500e+09 10.114689 130.457404 -108.857460
5.226750e+09 9.567712 130.105929 -108.716643
5.227000e+09 9.346304 130.085705 -107.102599
5.227250e+09 9.490259 130.380892 -106.386480
5.227500e+09 9.542116 129.971060 -107.870720
5.227750e+09 9.447685 129.844649 -109.550185
5.228000e+09 9.449869 129.988011 -107.291965
5.228250e+09 9.364981 130.136226 -108.022648
5.228500e+09 9.246011 130.016563 -110.106722
5.228750e+09 9.833276 130.573868 -109.161605
5.229000e+09 9.733278 130.360626 -107.783924
5.229250e+09 9.411423 130.188347 -109.844679
5.229500e+09 10.230505 130.622060 -110.857107
5.229750e+09 9.679006 130.336601 -107.847863
5.230000e+09 9.416167 130.134585 -110.147237
5.230250e+09 9.215760 129.729776 -112.150361
5.230500e+09 10.192442 130.440315 -107.339967
5.230750e+09 9.787161 130.294192 -109.301216
5.231000e+09 9.532267 130.023041 -111.621494
5.231250e+09 9.550494 129.816952 -109.924016
5.231500e+09 10.051064 130.177754 -108.987998
5.231750e+09 9.703881 130.167594 -110.290995
5.232000e+09 9.932484 130.126786 -110.702285
5.232250e+09 9.883393 130.351307 -110.688435
5.232500e+09 10.078945 130.529149 -107.336450
5.232750e+09 9.687300 130.209101 -109.297853
5.233000e+09 9.911096 130.208635 -110.877679
5.233250e+09 10.063640 130.135528 -111.277633
5.233500e+09 10.164961 130.107526 -111.172511
5.233750e+09 10.135315 130.145218 -112.536397
5.234000e+09 9.989383 129.954683 -110.948913
5.234250e+09 9.824741 130.126741 -112.553152
5.234500e+09 9.531665 129.804576 -114.474953
5.234750e+09 9.636283 129.918971 -112.061981
5.235000e+09 9.819680 130.181331 -111.160495
5.235250e+09 9.826800 130.078143 -113.331616
5.235500e+09 10.177527 130.160174 -112.790058
5.235750e+09 9.801618 130.008531 -114.439584
5.236000e+09 9.371347 129.738968 -115.629699
5.236250e+09 10.061702 130.151439 -113.679560
5.236500e+09 10.282137 130.119401 -114.042031
5.236750e+09 10.432113 130.162069 -113.297490
5.237000e+09 10.063929 129.995261 -115.504974
5.237250e+09 9.469762 129.693242 -116.998336
5.237500e+09 10.429425 130.360259 -113.918775
5.237750e+09 10.711238 130.612779 -111.301253
5.238000e+09 10.465953 130.472089 -112.858820
5.238250e+09 10.302490 130.352195 -111.504467
5.238500e+09 10.676736 130.474922 -115.056114
5.238750e+09 10.678464 130.397959 -113.096484
5.239000e+09 10.360034 130.150974 -115.457975
5.239250e+09 10.404169 130.189094 -113.378065
5.239500e+09 10.340513 130.416550 -114.388664
5.239750e+09 10.446612 130.394200 -111.931353
5.240000e+09 10.159356 130.162703 -115.558420
5.240250e+09 10.008241 129.867413 -117.431330
5.240500e+09 10.318827 130.299493 -114.490378
5.240750e+09 10.531209 130.276092 -115.374362
5.241000e+09 10.470945 130.396062 -114.935174
5.241250e+09 10.344012 130.397893 -114.756118
5.241500e+09 10.317026 130.395587 -114.382400
5.241750e+09 10.285543 130.387528 -115.339206
5.242000e+09 10.763373 130.507831 -113.680987
5.242250e+09 10.240865 129.985004 -118.444186
5.242500e+09 9.755346 129.676729 -119.789643
5.242750e+09 10.170152 130.118023 -118.587771
5.243000e+09 10.384241 130.109548 -115.883636
5.243250e+09 10.823806 130.401293 -114.187592
5.243500e+09 10.640358 130.220189 -115.600177
5.243750e+09 10.669927 130.168573 -116.815757
5.244000e+09 10.546640 130.241861 -116.451991
5.244250e+09 10.502150 130.324631 -118.322348
5.244500e+09 10.174535 129.832908 -119.848901
5.244750e+09 10.550198 130.287295 -116.337272
5.245000e+09 10.546191 130.120981 -118.530566
5.245250e+09 10.583484 130.179706 -117.090823
5.245500e+09 10.996760 130.384117 -116.590882
5.245750e+09 10.692803 130.156983 -119.040907
5.246000e+09 10.380381 130.054267 -119.276074
5.246250e+09 10.387903 130.041343 -120.932942
5.246500e+09 10.592210 130.160631 -117.989067
5.246750e+09 10.581057 130.184877 -120.494448
5.247000e+09 10.578570 130.028909 -118.206905
5.247250e+09 11.038411 130.363524 -116.546587
5.247500e+09 11.163697 130.478327 -115.676909
5.247750e+09 10.991847 130.473226 -115.409452
5.248000e+09 10.774915 130.222318 -117.736776
5.248250e+09 11.209169 130.474089 -115.911252
5.248500e+09 11.011524 130.449202 -118.128564
5.248750e+09 10.541223 130.121176 -121.230329
5.249000e+09 10.131494 129.694202 -123.429626
5.249250e+09 11.163865 130.429402 -118.132959
5.249500e+09 11.645285 130.690583 -121.800172
5.249750e+09 11.366548 130.511263 -121.616562
5.250000e+09 11.033294 130.386632 -119.293132
5.250250e+09 11.116825 130.447691 -123.182508
5.250500e+09 11.069877 130.396343 -119.445573
5.250750e+09 11.107089 130.470729 -118.293089
5.251000e+09 10.911815 130.278796 -122.745267
5.251250e+09 10.399737 129.686876 -124.836429
5.251500e+09 11.153954 130.202938 -122.342889
5.251750e+09 10.663340 129.925782 -124.622879
5.252000e+09 10.888225 129.943919 -124.406754
5.252250e+09 11.097199 129.993224 -124.118638
5.252500e+09 10.937504 130.102326 -122.634126
5.252750e+09 10.612499 129.829265 -125.101634
5.253000e+09 10.905992 129.835483 -122.894237
5.253250e+09 10.839393 129.787233 -124.947907
5.253500e+09 10.642260 129.644643 -127.187626
5.253750e+09 11.115394 130.237232 -122.943989
5.254000e+09 11.342492 130.187618 -123.746533
5.254250e+09 10.921784 129.978146 -126.481204
5.254500e+09 11.263024 130.042943 -124.747488
5.254750e+09 10.655057 129.791685 -127.223657
5.255000e+09 11.565983 130.326710 -122.765786
5.255250e+09 10.949465 130.107485 -126.096619
5.255500e+09 10.518911 129.699436 -128.321820
5.255750e+09 11.183299 130.178696 -126.225691
5.256000e+09 11.495053 130.429033 -122.912847
5.256250e+09 10.915483 130.054525 -126.887224
5.256500e+09 10.586723 129.767333 -127.220936
5.256750e+09 11.232697 130.154763 -126.329295
5.257000e+09 11.534387 130.140164 -125.999969
5.257250e+09 10.897542 129.961105 -127.663239
5.257500e+09 11.199746 130.119680 -128.615141
5.257750e+09 11.388643 130.016384 -127.876674
5.258000e+09 11.132231 130.013999 -129.526111
5.258250e+09 11.077727 129.760007 -129.530371
5.258500e+09 11.351973 129.996777 -126.812513
5.258750e+09 11.938302 130.412158 -124.592898
5.259000e+09 11.604562 130.218048 -128.951885
5.259250e+09 11.300914 129.831172 -129.312686
5.259500e+09 11.541123 129.970941 -126.897820
5.259750e+09 11.171347 129.879571 -129.612014
5.260000e+09 10.830796 129.720599 -129.438928
5.260250e+09 11.381840 130.048652 -126.212716
5.260500e+09 11.877828 130.281713 -125.114562
5.260750e+09 11.733361 130.399808 -124.845874
5.261000e+09 11.946300 130.486999 -124.152750
5.261250e+09 11.342572 130.165671 -128.620981
5.261500e+09 11.795345 130.392501 -125.898064
5.261750e+09 11.578613 130.339849 -126.337236
5.262000e+09 11.812231 130.244295 -127.929027
5.262250e+09 12.192520 130.465029 -126.313314
5.262500e+09 12.159872 130.441917 -125.986580
5.262750e+09 11.785891 130.445212 -126.673194
5.263000e+09 11.986157 130.275460 -129.535752
5.263250e+09 11.483496 130.107921 -129.911221
5.263500e+09 11.708591 130.074637 -127.701737
5.263750e+09 11.417365 59.034126 -130.810654
5.264000e+09 11.697535 130.205109 -128.483740
5.264250e+09 11.998079 130.232896 -128.918488
5.264500e+09 12.333258 130.448813 -126.858391
5.264750e+09 11.645481 130.151520 -130.539614
5.265000e+09 11.892129 130.172951 -130.810204
5.265250e+09 11.779405 130.262092 -130.764983
5.265500e+09 11.453528 130.096290 -132.380963
5.265750e+09 11.990494 130.137229 -130.557824
5.266000e+09 11.617205 129.923136 -133.321286
5.266250e+09 11.405229 129.770434 -132.440492
5.266500e+09 11.826972 130.140277 -133.539880
5.266750e+09 11.840666 129.915138 -130.414087
5.267000e+09 12.379965 130.406758 -128.587474
5.267250e+09 12.267577 130.346871 -132.259886
5.267500e+09 12.500064 130.453032 -128.308461
5.267750e+09 12.494542 130.353258 -130.862036
5.268000e+09 12.468498 130.375135 -132.269922
5.268250e+09 12.510216 130.388843 -131.254655
5.268500e+09 11.955880 130.221580 -132.253415
5.268750e+09 11.648202 129.927063 -134.764076
5.269000e+09 11.881688 129.933211 -132.369843
5.269250e+09 11.921536 130.144288 -134.706188
5.269500e+09 11.495638 129.780448 -136.362438
5.269750e+09 12.495839 130.439310 -130.001752
5.270000e+09 11.852562 130.117262 -134.709955
5.270250e+09 12.343237 130.211524 -131.509024
5.270500e+09 12.066046 130.151854 -132.888483
5.270750e+09 12.423373 130.284781 -130.837245
5.271000e+09 12.409703 130.370844 -130.681861
5.271250e+09 12.220805 130.368574 -134.995783
5.271500e+09 12.680071 130.458331 -135.253098
5.271750e+09 12.331984 130.252903 -135.373382
5.272000e+09 12.102950 129.975418 -136.803588
5.272250e+09 12.045561 130.066649 -137.803860
5.272500e+09 11.629106 129.677609 -138.873692
5.272750e+09 12.341807 130.275218 -134.524961
5.273000e+09 12.325371 130.182751 -133.906092
5.273250e+09 12.388183 130.239467 -133.533700
5.273500e+09 12.441224 130.405394 -133.207248
5.273750e+09 12.709616 130.374011 -135.417819
5.274000e+09 12.901591 130.420433 -133.653781
5.274250e+09 12.774181 130.328099 -134.056396
5.274500e+09 12.772554 130.411460 -136.956761
5.274750e+09 12.094348 129.995979 -136.623906
5.275000e+09 12.037214 130.008704 -138.356066
5.275250e+09 12.171333 129.997240 -137.299798
5.275500e+09 11.845283 129.778945 -137.883355
5.275750e+09 12.152442 129.786926 -137.574582
5.276000e+09 12.039470 129.710602 -139.256079
5.276250e+09 12.811852 130.489362 -138.782118
5.276500e+09 12.365783 130.144615 -137.867144
5.276750e+09 12.854750 130.360328 -135.692226
5.277000e+09 13.182547 130.478016 -134.251513
5.277250e+09 12.901241 130.181760 -137.322955
5.277500e+09 12.535585 130.133341 -139.185126
5.277750e+09 12.488047 130.158519 -138.898820
5.278000e+09 12.348883 130.130005 -138.986998
5.278250e+09 12.284447 129.998784 -138.632661
5.278500e+09 12.885907 130.306284 -135.606115
5.278750e+09 12.943655 130.287772 -137.223468
5.279000e+09 12.826334 130.347812 -136.972181
5.279250e+09 13.024700 130.298056 -138.498795
5.279500e+09 12.915894 130.360456 -137.201211
5.279750e+09 13.290722 130.505978 -139.762617
5.280000e+09 13.167780 130.518007 -137.845204
5.280250e+09 12.698626 130.220819 -138.228911
5.280500e+09 13.174510 130.425019 -136.015989
5.280750e+09 13.242633 130.404660 -138.494668
5.281000e+09 12.863405 130.351732 -138.003303
5.281250e+09 13.165717 130.368003 -138.138064
5.281500e+09 13.248130 130.283439 -139.411545
5.281750e+09 12.796259 130.194015 -141.276651
5.282000e+09 13.023858 130.164764 -139.306834
5.282250e+09 13.464947 130.509985 -140.707125
5.282500e+09 13.149710 130.477248 -141.589206
5.282750e+09 13.447158 130.629765 -137.305840
5.283000e+09 13.153215 130.252731 -139.583970
5.283250e+09 12.762264 130.086009 -141.340570
5.283500e+09 12.931947 130.091611 -141.789848
5.283750e+09 13.286371 130.213715 -140.379366
5.284000e+09 13.538565 130.483128 -138.109432
5.284250e+09 12.943242 130.106314 -142.113122
5.284500e+09 13.103176 130.068173 -141.427598
5.284750e+09 13.615608 130.420465 -138.260701
5.285000e+09 13.639715 130.420068 -138.258755
5.285250e+09 13.607906 130.441169 -138.815166
5.285500e+09 13.411011 130.381064 -141.173734
5.285750e+09 13.303662 130.411380 -141.536466
5.286000e+09 13.006139 129.782321 -142.763717
5.286250e+09 12.767191 129.772574 -144.312909
5.286500e+09 12.660073 129.695073 -145.106354
5.286750e+09 13.329464 130.441489 -143.246305
5.287000e+09 13.183805 130.178381 -143.626974
5.287250e+09 13.600127 130.348274 -141.419900
5.287500e+09 13.692192 130.308513 -143.023844
5.287750e+09 13.711202 130.416737 -143.720579
5.288000e+09 13.250064 130.124416 -143.875776
5.288250e+09 13.311311 130.122929 -142.786443
5.288500e+09 13.960997 130.602182 -144.067097
5.288750e+09 13.426937 130.326457 -140.860539
5.289000e+09 13.501343 130.334511 -144.341979
5.289250e+09 13.091050 130.088131 -144.828350
5.289500e+09 13.311891 130.043252 -144.367165
5.289750e+09 13.139294 130.005744 -145.410248
5.290000e+09 12.707068 129.693882 -146.669926
5.290250e+09 13.340563 130.215056 -143.768469
5.290500e+09 13.771115 130.390059 -141.259875
5.290750e+09 13.838461 130.309647 -142.999906
5.291000e+09 13.673010 130.415078 -142.081765
5.291250e+09 13.876024 130.451796 -141.353049
5.291500e+09 13.056741 129.816135 -147.422644
5.291750e+09 13.276607 129.785918 -145.175624
5.292000e+09 13.274343 129.845343 -146.779890
5.292250e+09 13.551724 129.961006 -144.248060
5.292500e+09 13.364711 130.043865 -147.067920
5.292750e+09 13.639897 130.081146 -145.044695
5.293000e+09 13.417604 130.042911 -147.154725
5.293250e+09 13.419917 129.971889 -146.751864
5.293500e+09 13.565529 130.128045 -146.609203
5.293750e+09 13.613628 130.093229 -145.757633
5.294000e+09 14.029702 130.407419 -142.623495
5.294250e+09 13.618796 130.167543 -146.867505
5.294500e+09 13.773359 130.163357 -146.859208
5.294750e+09 13.786433 130.119634 -147.112949
5.295000e+09 13.718045 130.160509 -147.832858
5.295250e+09 13.698706 130.071577 -147.142568
5.295500e+09 13.581257 129.992875 -147.707296
5.295750e+09 13.724454 130.049532 -147.728253
5.296000e+09 14.048265 130.243833 -147.055963
5.296250e+09 14.176016 130.526943 -149.671253
5.296500e+09 14.523208 130.632925 -148.687272
5.296750e+09 13.951235 130.194887 -147.706548
5.297000e+09 14.108146 130.315294 -146.577273
5.297250e+09 14.154625 130.267561 -146.917275
5.297500e+09 14.345358 130.312323 -145.579819
5.297750e+09 14.172995 130.385504 -144.570564
5.298000e+09 14.472917 130.426213 -149.368530
5.298250e+09 14.690922 130.511452 -145.257262
5.298500e+09 14.625351 130.384808 -150.064564
5.298750e+09 14.443869 130.262456 -147.947407
5.299000e+09 14.360709 130.345968 -146.792317
5.299250e+09 14.077770 130.163772 -150.674111
5.299500e+09 14.143030 130.134607 -149.256783
5.299750e+09 14.025021 130.210737 -150.164096
5.300000e+09 13.813487 130.008417 -150.484110
5.300250e+09 13.547840 129.729718 -151.315663
5.300500e+09 14.283625 130.490938 -149.943234
5.300750e+09 14.447709 130.331721 -149.235927
5.301000e+09 14.425253 130.336153 -147.814284
5.301250e+09 14.314968 130.403663 -151.384067
5.301500e+09 14.279808 130.456430 -146.528594
5.301750e+09 14.563570 130.303442 -148.386588
5.302000e+09 14.346287 130.445007 -151.504435
5.302250e+09 14.112004 130.194880 -150.731958
5.302500e+09 14.007646 130.049630 -152.243743
5.302750e+09 13.571532 129.706687 -153.201515
5.303000e+09 14.052162 129.787838 -150.856556
5.303250e+09 13.699911 129.719096 -153.051980
5.303500e+09 13.949655 129.863383 -153.476800
5.303750e+09 13.614704 129.675125 -154.220188
5.304000e+09 14.518792 130.343230 -149.179689
5.304250e+09 14.690150 130.455317 -153.625973
5.304500e+09 14.915217 130.585412 -151.339536
5.304750e+09 14.543295 130.378808 -152.848412
5.305000e+09 14.947358 130.402269 -153.244936
5.305250e+09 14.753043 130.322957 -150.025659
5.305500e+09 14.899458 130.294297 -150.924150
5.305750e+09 14.514220 130.314307 -150.088384
5.306000e+09 14.563265 130.519390 -152.743216
5.306250e+09 14.742686 130.407400 -149.591907
5.306500e+09 14.399803 130.289074 -153.143365
5.306750e+09 14.848004 130.330633 -150.882486
5.307000e+09 14.943614 130.319534 -151.522743
5.307250e+09 14.948385 130.348315 -150.353719
5.307500e+09 14.544665 130.319416 -150.191843
5.307750e+09 14.854649 130.396371 -151.480694
5.308000e+09 14.558891 130.166925 -152.018848
5.308250e+09 14.765923 130.172029 -151.026079
5.308500e+09 14.509212 130.148049 -152.756769
5.308750e+09 14.946063 130.373088 -151.601617
5.309000e+09 15.123575 130.326179 -151.396505
5.309250e+09 15.147383 130.264151 -151.977281
5.309500e+09 14.827866 130.379531 -148.458884
5.309750e+09 15.053786 130.342792 -150.295617
5.310000e+09 14.867922 130.345046 -153.050509
5.310250e+09 14.611474 130.112256 -154.198137
5.310500e+09 14.114897 129.767386 -155.548113
5.310750e+09 14.207794 129.818946 -156.206953
5.311000e+09 14.942165 130.599616 -153.773885
5.311250e+09 14.678309 130.349604 -152.488815
5.311500e+09 14.929399 130.369207 -151.178094
5.311750e+09 15.106568 130.214143 -152.903389
5.312000e+09 15.347889 130.334907 -151.479785
5.312250e+09 15.169376 130.116940 -154.325407
5.312500e+09 15.399619 130.359198 -152.731266
5.312750e+09 15.197892 130.338401 -154.150081
5.313000e+09 15.365074 130.375732 -153.655648
5.313250e+09 14.972804 130.330397 -153.112212
5.313500e+09 15.358786 130.471976 -153.448937
5.313750e+09 15.189182 130.348725 -153.825752
5.314000e+09 15.366891 130.328948 -152.373213
5.314250e+09 15.484195 130.332710 -151.999258
5.314500e+09 15.544858 130.318595 -153.219013
5.314750e+09 15.228070 130.305571 -156.913561
5.315000e+09 15.430384 130.337088 -157.641634
5.315250e+09 15.459530 130.448457 -154.181990
5.315500e+09 15.334696 130.377590 -152.562864
5.315750e+09 15.306631 130.349529 -154.987579
5.316000e+09 15.651669 130.507746 -154.704265
5.316250e+09 15.247399 130.254866 -156.618091
5.316500e+09 15.277282 130.343431 -154.192680
5.316750e+09 15.138675 130.322747 -155.763770
5.317000e+09 15.342194 130.383241 -155.379267
5.317250e+09 15.462638 130.269843 -156.143284
5.317500e+09 15.176535 130.192184 -157.726071
5.317750e+09 15.082144 130.058931 -158.707330
5.318000e+09 14.619605 129.698248 -159.937454
5.318250e+09 14.533082 129.540959 -159.125823
5.318500e+09 15.423352 130.171445 -156.697786
5.318750e+09 15.567185 130.381745 -153.981501
5.319000e+09 15.156698 129.798790 -157.933187
5.319250e+09 15.458530 129.943901 -156.827989
5.319500e+09 15.580605 130.080707 -156.971330
5.319750e+09 14.998571 129.523104 -161.301425
5.320000e+09 14.812423 129.712312 -160.569345
5.320250e+09 14.542171 129.549393 -160.337545
5.320500e+09 15.602089 130.244204 -160.990838
5.320750e+09 15.759183 130.314939 -160.737843
5.321000e+09 14.670274 129.492220 -161.064193
5.321250e+09 14.819664 129.782386 -161.131932
5.321500e+09 15.004494 129.884062 -161.456067
5.321750e+09 14.957047 129.693716 -161.046837
5.322000e+09 14.691342 129.523400 -160.642907
5.322250e+09 15.710440 130.204448 -156.964188
5.322500e+09 15.589659 130.328990 -158.822385
5.322750e+09 14.727053 129.560173 -160.651946
5.323000e+09 14.804296 129.569854 -161.231225
5.323250e+09 15.090083 129.813813 -161.413790
5.323500e+09 15.845495 130.352283 -160.092684
5.323750e+09 15.984655 130.328062 -159.419466
5.324000e+09 15.472511 129.898685 -161.822381
5.324250e+09 15.620753 129.910542 -160.627770
5.324500e+09 15.611630 130.077767 -161.872111
5.324750e+09 15.987557 130.228396 -159.521449
5.325000e+09 16.198046 130.335281 -158.612390
5.325250e+09 15.509194 129.761005 -159.370452
5.325500e+09 15.056298 129.560453 -161.167520
5.325750e+09 15.923997 130.363551 -161.296998
5.326000e+09 16.112277 130.297063 -160.486573
5.326250e+09 15.276533 129.487914 -160.652900
5.326500e+09 14.988805 129.478649 -164.400626
5.326750e+09 15.105266 129.593122 -164.923463
5.327000e+09 15.368810 129.734755 -163.178429
5.327250e+09 14.884255 129.383519 -164.196515
5.327500e+09 15.231058 129.680193 -164.629333
5.327750e+09 15.471434 129.745543 -163.504911
5.328000e+09 15.236921 129.453576 -163.746358
5.328250e+09 15.435093 129.448550 -162.109419
5.328500e+09 15.026348 129.352811 -164.617860
5.328750e+09 15.699416 129.982058 -162.541023
5.329000e+09 15.888341 130.112426 -162.165451
5.329250e+09 15.520344 129.805786 -164.321251
5.329500e+09 16.018243 130.080518 -162.457590
5.329750e+09 15.669238 129.766562 -162.578897
5.330000e+09 15.466718 129.558020 -163.767177
5.330250e+09 16.227763 130.131781 -162.254277
5.330500e+09 15.865780 129.878234 -163.837654
5.330750e+09 16.198482 130.165112 -162.338404
5.331000e+09 15.663697 129.742691 -164.460152
5.331250e+09 15.423564 129.609187 -165.673577
5.331500e+09 15.844391 129.956787 -163.715938
5.331750e+09 15.950795 129.818815 -162.596857
5.332000e+09 15.845999 130.016608 -164.091823
5.332250e+09 15.865789 130.026150 -164.210632
5.332500e+09 16.210692 130.068760 -163.235357
5.332750e+09 15.721668 129.660847 -163.751387
5.333000e+09 16.019288 129.804570 -163.868177
5.333250e+09 15.638788 129.698102 -166.766833
5.333500e+09 15.782568 129.726690 -165.774613
5.333750e+09 15.796802 129.926672 -165.716705
5.334000e+09 15.090277 129.290046 -167.499269
5.334250e+09 15.632530 129.692428 -165.582327
5.334500e+09 16.495500 130.267744 -163.863319
5.334750e+09 15.780040 129.822923 -166.369946
5.335000e+09 15.537992 129.740337 -166.824137
5.335250e+09 15.595006 129.834313 -167.555658
5.335500e+09 15.570302 129.781133 -167.297821
5.335750e+09 16.355381 130.167021 -164.745036
5.336000e+09 16.489950 130.189217 -164.785987
5.336250e+09 16.226708 129.889140 -164.773215
5.336500e+09 16.064556 129.976889 -166.148257
5.336750e+09 15.524984 129.495026 -168.706266
5.337000e+09 16.179226 129.985528 -166.000847
5.337250e+09 16.554372 130.179775 -165.103294
5.337500e+09 15.746895 129.543715 -168.003594
5.337750e+09 15.797235 129.444261 -167.010915
5.338000e+09 15.930153 129.794353 -167.344549
5.338250e+09 15.412677 129.379555 -167.297419
5.338500e+09 15.513635 129.469348 -169.256502
5.338750e+09 15.578071 129.304325 -167.933249
5.339000e+09 15.750196 129.627403 -168.437356
5.339250e+09 15.732139 129.693621 -168.177751
5.339500e+09 16.521874 130.109978 -165.823605
5.339750e+09 16.118125 129.845068 -167.937763
5.340000e+09 16.169140 129.698936 -165.820230
5.340250e+09 15.558292 129.331777 -167.946949
5.340500e+09 16.447887 129.952924 -166.167725
5.340750e+09 16.679997 130.139303 -165.523206
5.341000e+09 15.658663 129.382352 -168.096626
5.341250e+09 16.577969 130.119893 -167.337033
5.341500e+09 16.671456 130.029803 -166.115217
5.341750e+09 16.631509 129.960066 -166.752486
5.342000e+09 16.659059 129.900184 -166.278766
5.342250e+09 16.680163 130.167396 -166.563307
5.342500e+09 16.367350 129.884481 -168.201044
5.342750e+09 15.943667 129.601256 -169.768838
5.343000e+09 15.949626 129.633531 -169.663070
5.343250e+09 16.049440 129.682737 -169.176373
5.343500e+09 15.818419 129.503297 -169.215694
5.343750e+09 15.865105 129.595206 -168.306282
5.344000e+09 16.045746 129.662237 -169.310050
5.344250e+09 16.127533 129.446113 -166.457444
5.344500e+09 15.917834 129.460615 -169.426805
5.344750e+09 15.775734 129.416830 -170.705857
5.345000e+09 15.728876 129.274859 -170.161719
5.345250e+09 16.352172 129.697162 -168.195703
5.345500e+09 16.661580 129.838807 -166.856791
5.345750e+09 16.910282 130.181620 -166.403054
5.346000e+09 16.584408 130.071856 -169.112922
5.346250e+09 15.803994 129.427482 -171.321432
5.346500e+09 16.364661 129.997356 -169.670193
5.346750e+09 16.237529 129.775484 -170.169476
5.347000e+09 16.683107 129.904701 -167.589169
5.347250e+09 15.926127 129.398635 -169.519537
5.347500e+09 15.935287 129.497198 -169.607735
5.347750e+09 16.151378 129.735076 -170.751627
5.348000e+09 16.176703 129.774772 -170.075944
5.348250e+09 15.766374 129.362671 -170.564116
5.348500e+09 16.056109 129.469265 -171.421305
5.348750e+09 16.731007 129.862526 -169.103639
5.349000e+09 16.159017 129.333580 -167.701688
5.349250e+09 16.659763 129.896497 -168.495764
5.349500e+09 16.151892 129.436165 -168.801682
5.349750e+09 16.429232 129.757406 -171.477697
5.350000e+09 16.519771 129.649869 -170.782138
5.350250e+09 16.279609 129.469087 -171.142812
5.350500e+09 16.966636 129.909366 -168.917184
5.350750e+09 15.991828 129.189525 -171.408493
5.351000e+09 16.615255 129.635292 -170.022160
5.351250e+09 16.204295 129.478810 -170.665203
5.351500e+09 16.291919 129.367170 -168.415637
5.351750e+09 17.009143 129.893225 -168.815229
5.352000e+09 16.377820 129.500417 -168.879522
5.352250e+09 16.326478 129.608014 -171.956624
5.352500e+09 16.409940 129.424253 -169.888954
5.352750e+09 17.204119 130.019962 -169.325429
5.353000e+09 16.074935 129.296759 -171.371582
5.353250e+09 16.399387 129.458934 -171.856736
5.353500e+09 16.993298 129.895410 -169.484604
5.353750e+09 17.138990 130.011687 -170.170396
5.354000e+09 16.326942 129.457891 -170.091093
5.354250e+09 16.017226 129.195401 -172.848093
5.354500e+09 16.083714 129.142031 -172.572803
5.354750e+09 16.802071 129.829846 -170.378494
5.355000e+09 16.771855 129.523166 -170.131448
5.355250e+09 17.076273 129.937210 -170.661129
5.355500e+09 16.983377 130.090355 -171.632509
5.355750e+09 16.617651 129.413300 -169.911357
5.356000e+09 17.094631 130.059849 -169.719161
5.356250e+09 16.420830 129.570614 -173.049276
5.356500e+09 16.560559 129.578152 -172.496802
5.356750e+09 16.902966 129.943610 -170.447268
5.357000e+09 16.287111 129.463092 -171.940007
5.357250e+09 16.576848 129.317970 -170.710857
5.357500e+09 16.178155 129.342063 -172.977888
5.357750e+09 16.847260 129.928850 -173.604707
5.358000e+09 16.994095 129.736207 -171.569153
5.358250e+09 16.176157 129.266679 -171.779784
5.358500e+09 16.764285 129.595941 -170.497071
5.358750e+09 17.384620 129.963755 -170.657823
5.359000e+09 16.650869 129.671766 -171.860551
5.359250e+09 16.069198 129.271058 -173.450244
5.359500e+09 15.898398 129.108243 -174.845347
5.359750e+09 16.536917 129.276409 -172.337201
5.360000e+09 16.746397 129.440140 -172.985219
5.360250e+09 16.674198 129.300758 -170.869421
5.360500e+09 16.777756 129.343094 -170.724498
5.360750e+09 17.108546 129.916454 -170.972427
5.361000e+09 16.510413 129.610570 -173.185962
5.361250e+09 16.759539 129.778832 -172.113456
5.361500e+09 15.973663 129.085660 -174.519266
5.361750e+09 15.986174 129.145095 -174.753504
5.362000e+09 16.907436 129.588730 -172.378240
5.362250e+09 16.083566 129.085616 -174.242413
5.362500e+09 17.214988 129.911464 -171.693063
5.362750e+09 16.839700 129.794527 -172.774858
5.363000e+09 17.184497 129.766545 -172.784697
5.363250e+09 16.233386 129.157382 -174.624315
5.363500e+09 16.929782 129.496399 -171.834984
5.363750e+09 16.072593 129.055190 -174.122458
5.364000e+09 16.161897 130.044538 -174.673285
5.364250e+09 16.752784 129.267973 -171.912082
5.364500e+09 16.076655 129.018376 -174.167672
5.364750e+09 17.118216 130.011498 -173.750651
5.365000e+09 16.464394 129.059875 -173.601546
5.365250e+09 16.161689 129.098700 -173.701692
5.365500e+09 16.764810 129.563711 -172.134894
5.365750e+09 16.621803 129.433992 -174.386902
5.366000e+09 16.493591 129.066158 -173.747504
5.366250e+09 17.211371 129.607235 -171.690642
5.366500e+09 16.522627 129.307925 -172.534941
5.366750e+09 17.066468 129.521184 -172.946243
5.367000e+09 17.300766 129.681722 -171.896953
5.367250e+09 17.291616 129.780693 -173.282230
5.367500e+09 16.212139 129.076467 -174.766425
5.367750e+09 17.002293 129.751980 -172.549655
5.368000e+09 17.360503 129.852611 -172.365802
5.368250e+09 16.994978 129.575384 -173.828033
5.368500e+09 17.065943 129.408895 -172.449739
5.368750e+09 16.728810 129.475017 -174.212674
5.369000e+09 16.875250 129.648340 -173.216783
5.369250e+09 16.691497 129.187694 -172.059840
5.369500e+09 16.473587 129.317085 -174.831654
5.369750e+09 16.554272 129.261682 -173.122041
5.370000e+09 16.121456 128.961541 -175.603606
5.370250e+09 16.168049 129.043016 -176.339144
5.370500e+09 16.747624 129.687175 -173.489275
5.370750e+09 16.911835 129.673240 -173.242023
5.371000e+09 16.171230 129.038183 -175.880251
5.371250e+09 16.492212 129.074988 -175.213583
5.371500e+09 16.986618 129.563968 -172.806107
5.371750e+09 16.164978 128.983868 -175.400868
5.372000e+09 16.150173 129.050668 -176.034093
5.372250e+09 16.763505 129.662110 -173.596412
5.372500e+09 16.495151 129.256182 -173.690383
5.372750e+09 17.019857 129.658511 -174.731792
5.373000e+09 16.982267 129.493463 -174.920612
5.373250e+09 17.036144 129.672520 -173.499998
5.373500e+09 16.769987 129.307084 -174.917706
5.373750e+09 17.237816 129.683681 -172.575536
5.374000e+09 16.396674 129.032889 -175.618488
5.374250e+09 16.278031 129.029778 -176.068724
5.374500e+09 16.715690 129.098951 -174.753753
5.374750e+09 17.077806 129.552251 -172.686151
5.375000e+09 16.817317 129.562611 -174.746939
5.375250e+09 16.133067 128.967629 -175.980685
5.375500e+09 16.895255 129.256018 -173.466392
5.375750e+09 17.022191 129.407853 -173.026001
5.376000e+09 17.195287 129.747627 -175.771829
5.376250e+09 17.067992 129.554693 -174.107212
5.376500e+09 16.306253 128.921056 -176.518044
5.376750e+09 17.176840 129.508715 -171.773362
5.377000e+09 16.825054 129.358305 -173.694222
5.377250e+09 16.935824 129.184488 -174.237495
5.377500e+09 16.947099 129.555341 -175.286822
5.377750e+09 17.013757 129.385842 -173.914458
5.378000e+09 17.041460 129.173731 -173.340693
5.378250e+09 16.967784 129.145429 -174.464909
5.378500e+09 16.931705 129.250137 -173.234148
5.378750e+09 16.886372 129.499244 -175.686891
5.379000e+09 16.629424 129.323906 -176.848304
5.379250e+09 16.813124 129.067221 -174.635718
5.379500e+09 16.895883 129.034775 -173.003285
5.379750e+09 16.764050 129.202640 -175.455087
5.380000e+09 16.431173 128.913636 -174.625407
5.380250e+09 16.853753 129.249535 -172.771724
5.380500e+09 16.679242 129.121729 -173.458652
5.380750e+09 17.031201 129.616912 -175.079316
5.381000e+09 16.357414 128.962823 -176.899395
5.381250e+09 16.696238 129.276568 -176.440741
5.381500e+09 16.500798 129.217916 -174.676083
5.381750e+09 17.093591 129.419777 -173.031202
5.382000e+09 17.014372 129.315559 -173.301252
5.382250e+09 16.980043 129.355909 -175.416974
5.382500e+09 16.921209 129.026266 -174.196843
5.382750e+09 16.674997 129.031819 -173.669428
5.383000e+09 16.958861 129.073029 -174.161078
5.383250e+09 16.864527 129.270746 -174.663257
5.383500e+09 16.855145 129.483918 -176.142724
5.383750e+09 17.139856 129.281778 -174.173705
5.384000e+09 16.718906 128.888107 -175.717641
5.384250e+09 16.264999 128.798637 -176.551764
5.384500e+09 17.130517 129.260477 -174.234697
5.384750e+09 16.388582 128.930553 -175.706837
5.385000e+09 16.779516 129.233832 -175.842945
5.385250e+09 16.840604 129.062395 -174.003738
5.385500e+09 16.409440 128.989904 -175.906677
5.385750e+09 16.787731 128.932842 -173.346493
5.386000e+09 16.821203 129.175730 -175.263034
5.386250e+09 17.057044 129.136607 -172.006268
5.386500e+09 16.883878 129.339415 -174.666347
5.386750e+09 17.078442 129.234900 -173.927083
5.387000e+09 17.466575 129.493920 -174.291284
5.387250e+09 16.753449 129.221562 -176.270885
5.387500e+09 16.557369 129.161515 -175.003052
5.387750e+09 17.044008 129.243915 -174.002911
5.388000e+09 16.661748 129.078157 -174.537120
5.388250e+09 16.832914 128.923762 -174.809158
5.388500e+09 16.811501 129.045118 -173.881486
5.388750e+09 16.775888 129.198040 -174.910127
5.389000e+09 16.562880 129.132932 -177.133840
5.389250e+09 16.341921 128.856227 -175.879367
5.389500e+09 16.513181 129.017981 -176.488380
5.389750e+09 17.274949 129.437410 -174.942238
5.390000e+09 16.987278 128.993505 -172.897952
5.390250e+09 16.620713 129.038081 -175.871906
5.390500e+09 16.375484 128.935629 -176.812052
5.390750e+09 17.000792 129.167967 -174.165485
5.391000e+09 16.757606 129.174143 -175.685862
5.391250e+09 16.609967 129.086614 -173.177806
5.391500e+09 16.954445 129.523522 -173.592155
5.391750e+09 16.760359 129.112504 -174.998793
5.392000e+09 16.855944 129.036660 -176.506115
5.392250e+09 16.634527 128.787759 -176.729679
5.392500e+09 16.920329 129.273147 -174.062343
5.392750e+09 16.756824 128.893263 -173.522601
5.393000e+09 16.839835 128.940607 -174.233033
5.393250e+09 16.930627 128.850491 -174.801917
5.393500e+09 16.631113 129.005412 -176.415807
5.393750e+09 16.581166 129.045865 -175.265380
5.394000e+09 16.446328 128.712386 -176.808543
5.394250e+09 16.819349 128.830307 -174.566882
5.394500e+09 16.773100 128.942460 -174.425805
5.394750e+09 16.499659 128.965388 -176.922498
5.395000e+09 16.615078 128.847415 -174.861556
5.395250e+09 16.566324 129.035842 -175.930022
5.395500e+09 16.360871 128.925955 -175.794503
5.395750e+09 16.232621 128.644036 -176.930312
5.396000e+09 17.164175 129.169292 -174.108292
5.396250e+09 16.935288 129.151205 -174.220150
5.396500e+09 16.692624 129.077962 -174.596299
5.396750e+09 16.707501 128.736190 -175.214942
5.397000e+09 16.803290 129.035160 -175.353767
5.397250e+09 16.281285 128.707819 -177.393123
5.397500e+09 16.488132 129.006320 -175.885607
5.397750e+09 16.755248 129.156087 -177.572408
5.398000e+09 16.224934 128.697039 -175.442618
5.398250e+09 16.680978 129.137121 -173.954532
5.398500e+09 16.965813 129.151514 -175.914720
5.398750e+09 16.784449 128.884625 -174.557839
5.399000e+09 16.523363 128.917030 -176.216032
5.399250e+09 16.750475 129.138220 -173.108864
5.399500e+09 16.224847 128.746255 -175.879164
5.399750e+09 16.624963 128.848666 -174.109401
5.400000e+09 16.773388 129.098704 -174.099859
5.400250e+09 16.828211 128.781264 -175.188704
5.400500e+09 16.675484 128.773711 -176.858890
5.400750e+09 16.495501 128.819805 -177.457713
5.401000e+09 16.728790 128.864305 -172.740321
5.401250e+09 16.350299 128.845199 -175.460592
5.401500e+09 16.296922 128.796132 -177.035103
5.401750e+09 16.663669 128.917135 -176.994523
5.402000e+09 16.195862 128.642459 -175.525258
5.402250e+09 16.195255 128.737957 -175.942126
5.402500e+09 16.178610 128.626928 -177.057815
5.402750e+09 17.064258 129.127582 -174.826335
5.403000e+09 16.309674 128.684159 -176.674100
5.403250e+09 16.376968 128.882859 -175.666241
5.403500e+09 16.861723 129.139124 -176.606035
5.403750e+09 16.448800 128.916304 -174.614978
5.404000e+09 17.034498 129.179390 -175.983202
5.404250e+09 16.234717 128.667159 -174.840986
5.404500e+09 16.854627 129.013282 -175.788537
5.404750e+09 16.254333 128.512096 -175.121307
5.405000e+09 16.214418 128.676138 -176.153558
5.405250e+09 16.154952 128.678382 -175.352905
5.405500e+09 16.381575 128.739234 -174.334616
5.405750e+09 16.620341 128.792867 -176.532343
5.406000e+09 16.188610 128.571568 -174.654638
5.406250e+09 16.456683 128.696649 -176.738376
5.406500e+09 16.859976 128.889519 -174.925607
5.406750e+09 17.071638 128.931100 -174.224258
5.407000e+09 16.388892 128.804176 -176.641656
5.407250e+09 16.882555 129.085515 -177.286042
5.407500e+09 16.627983 129.106391 -173.572324
5.407750e+09 16.336766 128.461832 -176.927910
5.408000e+09 16.237189 128.493787 -174.848391
5.408250e+09 16.175926 128.403677 -177.448828
5.408500e+09 16.921744 129.028806 -174.521605
5.408750e+09 16.169608 128.608840 -176.157691
5.409000e+09 16.194709 128.555165 -175.115021
5.409250e+09 16.267588 128.377801 -176.127001
5.409500e+09 16.848236 129.078933 -177.670262
5.409750e+09 16.105769 128.588161 -175.868364
5.410000e+09 16.745623 128.777164 -174.017470
5.410250e+09 16.381449 128.846637 -176.237875
5.410500e+09 16.349463 128.460682 -174.976336
5.410750e+09 16.475399 128.825114 -176.780491
5.411000e+09 16.282569 128.341434 -175.566871
5.411250e+09 16.493284 128.569983 -174.844041
5.411500e+09 16.456381 128.526762 -174.713732
5.411750e+09 16.445111 128.861630 -174.574246
5.412000e+09 16.459670 128.829559 -176.819423
5.412250e+09 16.360588 128.422389 -175.381178
5.412500e+09 16.340138 128.743759 -174.954572
5.412750e+09 16.467650 128.718684 -177.041121
5.413000e+09 16.624855 128.943584 -175.643989
5.413250e+09 16.404734 128.803310 -176.250724
5.413500e+09 16.645516 128.630968 -175.496099
5.413750e+09 16.401731 128.475004 -176.659852
5.414000e+09 16.307431 128.577801 -175.391552
5.414250e+09 16.508188 128.968469 -177.221857
5.414500e+09 15.990939 128.549969 -177.350820
5.414750e+09 16.269060 128.447604 -176.038324
5.415000e+09 16.606279 128.604601 -174.536277
5.415250e+09 16.329217 128.739358 -175.921655
5.415500e+09 16.245038 128.373579 -175.423787
5.415750e+09 16.319300 128.423598 -174.707877
5.416000e+09 16.402566 128.414645 -175.652467
5.416250e+09 16.173975 128.482191 -175.914234
5.416500e+09 16.534297 128.708968 -176.357198
5.416750e+09 16.816822 128.816317 -175.466320
5.417000e+09 16.093633 128.615567 -176.794009
5.417250e+09 16.237879 128.577534 -177.207937
5.417500e+09 16.064314 128.552893 -176.019456
5.417750e+09 16.119821 128.444101 -176.878875
5.418000e+09 16.791857 128.809080 -175.570986
5.418250e+09 16.166510 128.600374 -177.288654
5.418500e+09 16.191838 128.748435 -175.047093
5.418750e+09 16.437342 128.957541 -177.534723
5.419000e+09 15.906866 128.464681 -178.063872
5.419250e+09 16.284070 128.813382 -175.547277
5.419500e+09 16.062504 128.610386 -176.292919
5.419750e+09 16.266693 128.831791 -177.517893
5.420000e+09 16.572538 128.684480 -176.651850
5.420250e+09 16.125177 128.634806 -176.725238
5.420500e+09 15.880824 128.507909 -178.191988
5.420750e+09 16.102554 128.676238 -176.544845
5.421000e+09 15.781927 128.460873 -177.637129
5.421250e+09 16.629946 128.754885 -176.146332
5.421500e+09 16.158874 128.297175 -175.362196
5.421750e+09 16.771176 128.914359 -177.427198
5.422000e+09 15.981711 128.477945 -178.408629
5.422250e+09 16.089776 128.720954 -176.663563
5.422500e+09 16.361001 128.587100 -176.658011
5.422750e+09 16.094833 128.532249 -175.617624
5.423000e+09 16.080458 128.653120 -177.222006
5.423250e+09 16.417007 128.944587 -175.958384
5.423500e+09 16.113259 128.672070 -175.551066
5.423750e+09 16.482289 128.986262 -175.702308
5.424000e+09 16.589538 128.708609 -176.386867
5.424250e+09 16.741714 128.984050 -176.042243
5.424500e+09 16.030990 128.527964 -176.995517
5.424750e+09 16.437700 128.906403 -176.204297
5.425000e+09 16.466710 128.809148 -178.493850
5.425250e+09 15.804848 128.455021 -178.171316
5.425500e+09 15.957996 128.668643 -178.715202
5.425750e+09 15.947541 128.486237 -177.177257
5.426000e+09 15.863202 128.546896 -176.962565
5.426250e+09 15.950353 128.427782 -177.678377
5.426500e+09 15.951213 128.404592 -177.630253
5.426750e+09 16.049970 128.719578 -176.938253
5.427000e+09 15.808859 128.515415 -178.424314
5.427250e+09 15.831654 128.201851 -176.969459
5.427500e+09 15.826102 128.505575 -177.656223
5.427750e+09 16.165143 128.455543 -174.633963
5.428000e+09 15.873577 128.481402 -175.769427
5.428250e+09 16.344598 128.774790 -175.196838
5.428500e+09 16.588593 129.077452 -175.889179
5.428750e+09 16.247273 128.632085 -178.286840
5.429000e+09 15.865676 128.556805 -178.543879
5.429250e+09 16.269439 128.828352 -175.842254
5.429500e+09 15.876107 128.379110 -176.322536
5.429750e+09 16.016604 128.601701 -177.914918
5.430000e+09 16.167557 128.524490 -175.683805
5.430250e+09 15.933453 128.454047 -176.089143
5.430500e+09 15.926105 128.456156 -177.594002
5.430750e+09 15.872589 128.296427 -177.916055
5.431000e+09 16.364561 128.857800 -178.473937
5.431250e+09 15.770522 128.511790 -175.909471
5.431500e+09 16.134316 128.755213 -177.178704
5.431750e+09 15.976524 128.372581 -175.835427
5.432000e+09 16.573685 128.916995 -177.194990
5.432250e+09 15.868628 128.587756 -177.596801
5.432500e+09 16.132114 128.708149 -176.818958
5.432750e+09 15.671838 128.477278 -177.671533
5.433000e+09 16.139353 128.482130 -175.925394
5.433250e+09 15.682213 128.399774 -177.228223
5.433500e+09 15.769572 128.378853 -179.503728
5.433750e+09 15.814933 128.633936 -176.787610
5.434000e+09 15.663093 128.528681 -177.481444
5.434250e+09 15.841768 128.550661 -178.342876
5.434500e+09 16.657476 128.961256 -176.728341
5.434750e+09 16.431288 128.822714 -175.994418
5.435000e+09 15.771362 128.516660 -177.481584
5.435250e+09 15.725309 128.244220 -177.936318
5.435500e+09 16.210860 128.599767 -176.453801
5.435750e+09 16.394578 128.614043 -176.766660
5.436000e+09 16.643205 128.908028 -176.638348
5.436250e+09 16.185448 128.831850 -178.681889
5.436500e+09 15.882622 128.284656 -177.689169
5.436750e+09 15.955431 128.690572 -178.403208
5.437000e+09 15.707866 128.583688 -179.396157
5.437250e+09 15.978666 128.854625 -177.404955
5.437500e+09 15.574266 128.484833 -179.342237
5.437750e+09 15.953611 128.805232 -178.718979
5.438000e+09 15.983471 128.683755 -176.526278
5.438250e+09 15.644539 128.528096 -178.332238
5.438500e+09 15.593366 128.568894 -177.063385
5.438750e+09 16.045934 128.707967 -177.779001
5.439000e+09 15.874248 128.214761 -176.434676
5.439250e+09 15.732252 128.596343 -177.430109
5.439500e+09 15.628584 128.616627 -178.614574
5.439750e+09 16.137700 128.639247 -177.143610
5.440000e+09 15.854769 128.306358 -178.010571
5.440250e+09 15.648440 128.526199 -178.728639
5.440500e+09 16.171549 128.703630 -176.525915
5.440750e+09 16.138143 128.751424 -178.782087
5.441000e+09 15.808795 128.374801 -176.730983
5.441250e+09 15.907899 128.443193 -176.605478
5.441500e+09 15.710748 128.523315 -179.097961
5.441750e+09 15.795903 128.326627 -177.394067
5.442000e+09 15.829492 128.241799 -176.930146
5.442250e+09 15.687337 128.500885 -179.713566
5.442500e+09 16.161489 128.984097 -175.307231
5.442750e+09 16.194960 128.600990 -177.134034
5.443000e+09 16.275168 128.905127 -179.024327
5.443250e+09 16.406810 128.979121 -176.761665
5.443500e+09 16.338823 128.793149 -176.817538
5.443750e+09 15.620893 128.577124 -179.255943
5.444000e+09 15.629404 128.491032 -177.293384
5.444250e+09 16.108430 128.836908 -178.631721
5.444500e+09 15.804197 128.450186 -179.404606
5.444750e+09 15.984959 128.962676 -179.141401
5.445000e+09 15.978665 128.783571 -179.476894
5.445250e+09 15.624645 128.658251 -175.947629
5.445500e+09 15.584201 128.521413 -177.090995
5.445750e+09 15.883838 128.898309 -179.148211
5.446000e+09 16.219694 129.109919 -178.019130
5.446250e+09 15.542125 128.627282 -179.892032
5.446500e+09 15.611198 128.885674 -177.763556
5.446750e+09 15.715374 128.634428 -177.805746
5.447000e+09 15.360561 128.514932 179.675936
5.447250e+09 16.061628 128.714761 -178.191952
5.447500e+09 16.401994 129.071860 -179.397230
5.447750e+09 16.149315 129.276010 -178.382221
5.448000e+09 16.304934 129.009221 -177.677645
5.448250e+09 15.720809 128.353424 -178.215843
5.448500e+09 15.572592 128.682692 -179.227411
5.448750e+09 15.528534 128.631487 178.796995
5.449000e+09 15.681114 129.303938 -178.205290
5.449250e+09 16.269364 129.028088 -179.108974
5.449500e+09 15.907294 128.587192 -178.472699
5.449750e+09 16.356741 129.076231 -179.202859
5.450000e+09 16.391692 129.018752 -179.248377
5.450250e+09 15.429020 128.544191 179.858111
5.450500e+09 15.791906 128.900320 179.089395
5.450750e+09 15.600726 128.808043 -178.136196
5.451000e+09 15.612105 128.460504 -178.882026
5.451250e+09 15.651520 128.796919 179.927308
5.451500e+09 15.563432 128.407701 -178.392226
5.451750e+09 15.723712 129.217750 -177.682070
5.452000e+09 15.680724 128.985875 -178.523651
5.452250e+09 15.674719 128.848661 -179.050644
5.452500e+09 15.638227 129.062742 -178.808850
5.452750e+09 15.536218 128.800103 179.410155
5.453000e+09 15.596383 128.797417 -179.830213
5.453250e+09 15.459768 128.723440 178.162881
5.453500e+09 15.507848 128.860689 179.844614
5.453750e+09 15.903510 129.127119 -179.500326
5.454000e+09 15.799465 129.055891 -179.721033
5.454250e+09 15.577858 128.810364 177.284349
5.454500e+09 15.877579 128.800715 -177.881123
5.454750e+09 15.923899 128.636070 -178.801766
5.455000e+09 15.851746 128.959809 -179.541505
5.455250e+09 15.577211 128.609070 178.304240
5.455500e+09 15.935646 128.748707 -179.960716
5.455750e+09 15.696756 128.917708 179.517881
5.456000e+09 15.641379 128.987722 -178.582178
5.456250e+09 15.364435 128.769740 178.779678
5.456500e+09 16.007604 129.174336 -178.671115
5.456750e+09 15.727962 128.835011 178.289913
5.457000e+09 15.660641 128.644282 179.300878
5.457250e+09 16.085631 129.108926 179.400839
5.457500e+09 15.398004 128.709541 -179.028510
5.457750e+09 15.370453 128.681518 178.806959
5.458000e+09 15.503752 128.674446 -179.113601
5.458250e+09 15.595784 128.648908 -178.618263
5.458500e+09 15.845982 129.278303 -178.586483
5.458750e+09 15.813658 128.922771 -178.952887
5.459000e+09 15.323756 128.719311 179.311379
5.459250e+09 15.559552 128.785377 -179.256280
5.459500e+09 15.572728 128.725613 178.128661
5.459750e+09 15.399483 128.630614 177.015158
5.460000e+09 15.925335 129.090714 177.900079
5.460250e+09 15.684105 128.974867 -178.223503
5.460500e+09 15.918601 128.999617 -179.012600
5.460750e+09 15.743287 129.331277 -179.839930
5.461000e+09 15.430663 128.911783 178.934709
5.461250e+09 15.469856 129.010157 177.453822
5.461500e+09 15.470920 129.057707 178.990958
5.461750e+09 15.966550 129.294367 177.780232
5.462000e+09 15.703428 129.222202 177.045703
5.462250e+09 15.459189 129.029542 177.122426
5.462500e+09 15.279587 128.837848 176.923280
5.462750e+09 15.453555 129.075981 -179.867691
5.463000e+09 15.380898 128.653619 177.563199
5.463250e+09 15.441456 128.948204 178.094299
5.463500e+09 15.738806 129.026206 179.680175
5.463750e+09 16.042995 129.272773 177.669092
5.464000e+09 15.442778 128.736901 176.744960
5.464250e+09 15.457565 128.965017 177.340556
5.464500e+09 15.460859 128.950481 176.810257
5.464750e+09 15.541025 129.050986 177.010428
5.465000e+09 15.690140 129.175439 -178.462997
5.465250e+09 15.613486 128.920207 178.077630
5.465500e+09 15.628308 129.151439 178.877091
5.465750e+09 15.591366 128.930779 179.149719
5.466000e+09 16.117181 129.454356 179.205911
5.466250e+09 15.547217 129.072688 176.672468
5.466500e+09 15.411900 129.216420 179.991374
5.466750e+09 15.260752 128.887538 176.531860
5.467000e+09 15.632178 129.182068 178.796951
5.467250e+09 15.842959 129.302675 177.367706
5.467500e+09 16.148063 129.464099 177.316239
5.467750e+09 15.736228 129.195250 175.880000
5.468000e+09 15.790020 129.196694 -179.331905
5.468250e+09 15.504868 129.011634 176.763259
5.468500e+09 15.431052 129.086380 176.236221
5.468750e+09 15.129023 128.945341 177.905902
5.469000e+09 15.089741 128.958350 176.633163
5.469250e+09 15.460679 128.684833 178.470625
5.469500e+09 15.518990 129.328169 176.689078
5.469750e+09 15.115141 129.007973 176.131573
5.470000e+09 15.398181 129.157819 175.260735
5.470250e+09 15.543890 129.100917 178.077988
5.470500e+09 15.609719 129.434925 178.599906
5.470750e+09 15.627105 129.418765 176.649651
5.471000e+09 15.192983 128.892797 174.832637
5.471250e+09 15.601257 129.055418 177.261917
5.471500e+09 16.016003 129.401220 177.028305
5.471750e+09 15.674351 129.402303 176.124322
5.472000e+09 15.389581 129.135912 174.670827
5.472250e+09 15.630299 129.141752 177.026141
5.472500e+09 15.390426 128.956029 177.803255
5.472750e+09 15.257396 128.995284 174.699961
5.473000e+09 15.163394 128.996185 177.163563
5.473250e+09 15.712119 129.314869 177.487318
5.473500e+09 15.868721 129.368321 176.141469
5.473750e+09 15.580249 129.089455 177.348264
5.474000e+09 15.559405 129.086584 177.452083
5.474250e+09 15.553843 129.025606 176.867513
5.474500e+09 15.879969 129.337594 175.662123
5.474750e+09 15.553332 129.376967 175.021149
5.475000e+09 15.417500 129.218053 173.951336
5.475250e+09 15.744724 129.359254 176.782897
5.475500e+09 15.887317 129.396121 176.137062
5.475750e+09 15.054921 128.923203 174.993468
5.476000e+09 14.958296 129.000347 175.469752
5.476250e+09 15.438804 129.299489 176.581423
5.476500e+09 15.390677 129.311998 176.739113
5.476750e+09 15.086465 129.164264 174.990452
5.477000e+09 15.512401 129.268519 175.435154
5.477250e+09 15.257688 129.045960 175.733196
5.477500e+09 15.390488 129.024220 175.349018
5.477750e+09 15.507970 129.137543 175.461563
5.478000e+09 14.912991 128.972039 173.846271
5.478250e+09 15.353721 129.248862 174.945395
5.478500e+09 15.499197 129.359760 175.044489
5.478750e+09 15.396379 129.460914 173.245449
5.479000e+09 15.334283 129.507163 172.205118
5.479250e+09 15.072257 129.148506 174.420664
5.479500e+09 15.286850 129.465697 174.330088
5.479750e+09 15.517296 129.479552 172.578019
5.480000e+09 15.861779 129.627799 173.158704
5.480250e+09 15.420339 129.535583 174.159466
5.480500e+09 15.133372 129.181411 172.113111
5.480750e+09 15.537410 129.500944 176.577627
5.481000e+09 15.758438 129.629362 173.592950
5.481250e+09 15.375515 129.516729 173.954832
5.481500e+09 15.452555 129.336480 173.289479
5.481750e+09 15.132547 129.068092 171.892100
5.482000e+09 15.559782 129.389549 174.216281
5.482250e+09 15.595392 129.590804 172.308549
5.482500e+09 15.504993 129.323049 173.449992
5.482750e+09 15.596328 129.464130 174.596875
5.483000e+09 15.554183 129.306849 173.488763
5.483250e+09 15.418095 129.312765 174.453805
5.483500e+09 15.418441 129.277582 171.914218
5.483750e+09 15.002158 129.058664 170.819404
5.484000e+09 15.081539 129.074541 171.130470
5.484250e+09 14.967315 129.132556 171.519477
5.484500e+09 15.333657 129.240265 172.652732
5.484750e+09 15.541878 129.412869 174.286518
5.485000e+09 15.718799 129.530549 173.109191
5.485250e+09 15.538396 129.851642 173.773485
5.485500e+09 15.477102 129.390565 171.888268
5.485750e+09 15.401042 129.195914 172.221523
5.486000e+09 15.563856 129.359586 173.190797
5.486250e+09 15.507915 129.618600 173.482141
5.486500e+09 15.433900 129.744195 173.244772
5.486750e+09 15.310841 129.367103 172.851322
5.487000e+09 14.681495 129.007920 169.503670
5.487250e+09 15.252514 129.385276 171.990521
5.487500e+09 15.501044 129.159680 172.599179
5.487750e+09 15.588632 129.929472 172.168297
5.488000e+09 15.602543 129.690773 170.842013
5.488250e+09 14.817338 129.012169 168.814540
5.488500e+09 15.076954 129.503518 170.519645
5.488750e+09 14.619010 128.996914 169.043980
5.489000e+09 15.006226 129.330044 172.287727
5.489250e+09 15.617877 129.687922 171.769882
5.489500e+09 15.106788 129.421454 172.075166
5.489750e+09 15.695070 129.857772 171.478365
5.490000e+09 15.099841 129.509591 169.957971
5.490250e+09 15.399731 129.865054 171.049305
5.490500e+09 15.566810 129.727004 170.765287
5.490750e+09 15.317259 129.359119 169.718782
5.491000e+09 14.792028 129.181239 169.920598
5.491250e+09 14.520777 129.022171 168.470745
5.491500e+09 14.826500 129.667101 171.320398
5.491750e+09 15.368227 129.851536 168.688743
5.492000e+09 15.191095 129.790128 170.052060
5.492250e+09 15.287700 129.650597 170.971242
5.492500e+09 14.638108 129.195478 170.919347
5.492750e+09 15.607110 129.881131 170.476043
5.493000e+09 15.281510 129.782860 170.191491
5.493250e+09 15.592130 129.826191 168.443390
5.493500e+09 14.607539 129.078028 167.547281
5.493750e+09 15.112014 129.784718 169.427010
5.494000e+09 15.513553 129.969433 168.055831
5.494250e+09 15.238374 129.433315 168.535744
5.494500e+09 14.976912 129.508522 168.641798
5.494750e+09 14.490952 129.061166 167.635768
5.495000e+09 14.961011 129.542159 170.115041
5.495250e+09 15.439075 129.747694 169.544259
5.495500e+09 14.888020 129.364916 170.425437
5.495750e+09 15.154571 129.493799 169.802064
5.496000e+09 15.524212 129.944625 169.664236
5.496250e+09 14.873199 129.295009 169.432862
5.496500e+09 14.459825 129.182424 166.773405
5.496750e+09 15.599813 129.972062 167.331867
5.497000e+09 14.569496 129.070783 166.001700
5.497250e+09 15.089383 129.805154 168.216413
5.497500e+09 14.862823 129.538038 169.266305
5.497750e+09 15.248053 130.085357 169.245828
5.498000e+09 14.788937 129.410238 169.134736
5.498250e+09 14.641052 129.343035 167.311904
5.498500e+09 14.841241 129.356496 165.421776
5.498750e+09 14.830701 129.359971 165.389784
5.499000e+09 15.256380 129.915332 166.040614
5.499250e+09 14.339988 129.111364 166.230512
5.499500e+09 14.568316 129.165923 166.033201
5.499750e+09 14.413358 129.121248 166.340758
5.500000e+09 14.315726 129.121489 166.756002
5.500250e+09 14.489363 129.370183 168.450513
5.500500e+09 14.999550 129.730670 169.064884
5.500750e+09 14.512564 129.217070 169.039012
5.501000e+09 15.185551 129.734467 167.901588
5.501250e+09 14.690338 129.494087 165.935524
5.501500e+09 15.107023 129.939244 165.432632
5.501750e+09 14.357441 129.125295 164.459867
5.502000e+09 14.900490 129.357894 165.619605
5.502250e+09 15.230965 129.859104 165.353612
5.502500e+09 14.704534 129.177759 164.696753
5.502750e+09 15.170009 129.888749 167.379391
5.503000e+09 14.719661 129.791067 168.197840
5.503250e+09 14.797600 129.663974 166.621965
5.503500e+09 14.839657 129.800062 165.666451
5.503750e+09 15.165864 129.735586 164.674113
5.504000e+09 15.102796 129.548742 163.778771
5.504250e+09 15.021869 129.754100 166.349342
5.504500e+09 15.255525 129.781642 165.631100
5.504750e+09 14.483771 129.244197 163.765645
5.505000e+09 15.367930 129.998021 165.146611
5.505250e+09 14.844787 129.662123 166.212470
5.505500e+09 14.426074 129.165372 163.230989
5.505750e+09 14.603739 129.154520 162.672148
5.506000e+09 14.711828 129.152969 162.946351
5.506250e+09 14.985403 129.517719 165.087580
5.506500e+09 14.500166 129.346662 165.609563
5.506750e+09 15.365553 129.982625 164.877369
5.507000e+09 15.046227 129.557899 165.252292
5.507250e+09 15.411144 130.119048 164.892023
5.507500e+09 14.408990 129.264355 162.344722
5.507750e+09 15.224904 129.962045 162.031004
5.508000e+09 14.327091 129.143149 161.967298
5.508250e+09 14.602917 129.167995 162.490929
5.508500e+09 14.945176 129.848656 163.034428
5.508750e+09 14.329892 129.364760 164.803414
5.509000e+09 14.972647 129.634378 162.813897
5.509250e+09 14.872831 129.766894 162.633046
5.509500e+09 14.323334 129.392970 164.350533
5.509750e+09 14.382627 129.290735 161.726948
5.510000e+09 14.387962 129.213865 161.323038
5.510250e+09 14.620213 129.187457 161.603828
5.510500e+09 14.940148 129.823106 163.616307
5.510750e+09 15.252694 130.104963 164.293093
5.511000e+09 14.437692 129.546810 162.448017
5.511250e+09 14.988090 129.898905 163.640402
5.511500e+09 15.068254 129.686750 162.020158
5.511750e+09 15.524686 130.045222 160.840473
5.512000e+09 15.097712 130.060195 161.381746
5.512250e+09 14.571247 129.199595 160.426734
5.512500e+09 15.318010 130.104409 162.806491
5.512750e+09 14.691918 129.709271 161.257951
5.513000e+09 14.799958 129.778271 160.236804
5.513250e+09 14.915226 129.887058 162.520912
5.513500e+09 15.379518 130.061967 161.056489
5.513750e+09 15.529556 130.099826 159.861883
5.514000e+09 15.316600 130.146824 161.890827
5.514250e+09 14.772045 129.599371 162.441015
5.514500e+09 14.871224 129.706043 159.454819
5.514750e+09 15.098865 129.807396 160.779757
5.515000e+09 14.608210 129.642113 160.872560
5.515250e+09 14.999836 130.123719 161.846742
5.515500e+09 14.872985 129.890553 161.560752
5.515750e+09 14.235000 129.482088 161.385477
5.516000e+09 14.889467 129.617352 158.718531
5.516250e+09 14.470547 129.379843 158.169899
5.516500e+09 14.915348 129.614548 158.066609
5.516750e+09 15.051480 130.041059 161.035337
5.517000e+09 14.360852 129.476138 159.306868
5.517250e+09 14.589552 129.691984 159.533154
5.517500e+09 14.861153 129.612886 158.159109
5.517750e+09 15.059534 129.738785 160.230245
5.518000e+09 15.388494 130.087805 159.725085
5.518250e+09 14.754358 129.457753 157.387387
5.518500e+09 15.235872 129.889609 158.540470
5.518750e+09 14.557781 129.603469 158.944648
5.519000e+09 14.656455 129.414448 157.080071
5.519250e+09 15.245451 129.881784 157.328766
5.519500e+09 14.729706 129.610720 157.155281
5.519750e+09 15.174868 130.008678 158.833069
5.520000e+09 15.252176 129.870809 157.433614
5.520250e+09 14.986898 129.836341 159.124528
5.520500e+09 14.534637 129.391387 159.273748
5.520750e+09 14.626259 129.434136 155.870227
5.521000e+09 15.137747 129.825201 156.827515
5.521250e+09 14.336110 129.360448 156.925644
5.521500e+09 14.826475 129.641862 155.623460
5.521750e+09 14.708610 129.809388 156.818042
5.522000e+09 14.820354 129.610571 156.042275
5.522250e+09 14.630794 129.232081 155.958425
5.522500e+09 14.649289 129.281663 155.168692
5.522750e+09 15.040903 130.013121 158.170971
5.523000e+09 15.256419 130.003268 156.622388
5.523250e+09 15.244928 129.886570 155.937458
5.523500e+09 15.045742 129.634806 154.566829
5.523750e+09 14.805042 129.391587 154.876175
5.524000e+09 14.638942 129.583811 156.748905
5.524250e+09 14.893384 130.032389 157.299146
5.524500e+09 15.150125 130.185188 157.199235
5.524750e+09 14.618803 129.343743 154.290108
5.525000e+09 14.612826 129.707332 156.051143
5.525250e+09 15.085619 130.185494 156.595121
5.525500e+09 14.731999 129.452058 154.408111
5.525750e+09 14.840180 129.536272 154.856490
5.526000e+09 14.868326 129.718674 153.493098
5.526250e+09 14.596243 129.275875 152.421971
5.526500e+09 14.372109 129.264268 153.019727
5.526750e+09 14.779936 129.634896 153.251344
5.527000e+09 14.930979 129.930291 155.888468
5.527250e+09 14.855864 130.025777 155.865265
5.527500e+09 14.677068 129.689414 156.115228
5.527750e+09 14.677876 129.448088 152.379389
5.528000e+09 14.461088 129.420559 152.441756
5.528250e+09 15.124538 129.898890 154.071175
5.528500e+09 15.005041 130.118859 154.260577
5.528750e+09 14.239301 129.343369 153.213000
5.529000e+09 15.353520 130.176600 152.482446
5.529250e+09 15.004235 129.617869 151.945310
5.529500e+09 14.585724 129.374259 151.878141
5.529750e+09 14.545244 129.635000 153.151244
5.530000e+09 14.383887 129.301734 151.956996
5.530250e+09 14.994792 129.861981 154.249449
5.530500e+09 15.150650 129.871358 152.049176
5.530750e+09 15.079790 129.962928 153.806788
5.531000e+09 14.547171 129.722954 154.296192
5.531250e+09 14.332666 129.640602 154.134067
5.531500e+09 14.477482 129.665106 152.060753
5.531750e+09 14.357806 129.567533 153.176937
5.532000e+09 14.633784 129.780525 153.197415
5.532250e+09 14.977368 129.794605 150.404050
5.532500e+09 14.976873 129.642015 150.180338
5.532750e+09 14.745083 129.476260 151.878769
5.533000e+09 14.722839 129.674483 150.450538
5.533250e+09 14.957398 129.967431 150.481680
5.533500e+09 15.068391 130.216024 152.486709
5.533750e+09 14.926305 129.815949 152.064459
5.534000e+09 14.467961 129.462225 152.392293
5.534250e+09 14.930160 129.686370 149.908407
5.534500e+09 15.163886 130.047431 149.598847
5.534750e+09 14.445735 129.571745 150.323383
5.535000e+09 15.048910 129.808588 148.929295
5.535250e+09 14.901406 129.933057 151.128944
5.535500e+09 14.296430 129.324372 149.492530
5.535750e+09 14.289292 129.420520 151.002504
5.536000e+09 14.631348 129.395069 148.208806
5.536250e+09 15.230537 129.875247 148.791629
5.536500e+09 14.483463 129.397276 148.604842
5.536750e+09 14.941251 129.727445 149.046913
5.537000e+09 14.764930 129.384456 147.156469
5.537250e+09 15.048859 129.690020 147.992100
5.537500e+09 14.906138 129.866760 149.074762
5.537750e+09 15.115628 130.087554 149.738246
5.538000e+09 14.421490 129.250290 147.189282
5.538250e+09 14.519177 129.579713 148.425337
5.538500e+09 14.814796 129.949211 149.758391
5.538750e+09 14.534368 129.505591 149.649995
5.539000e+09 14.972328 129.798296 148.319631
5.539250e+09 15.204079 129.872230 145.982137
5.539500e+09 14.984387 129.567890 145.690593
5.539750e+09 15.579841 130.156964 146.255701
5.540000e+09 14.957685 129.731326 147.533572
5.540250e+09 14.974221 129.705051 145.531218
5.540500e+09 15.108862 130.110642 147.115190
5.540750e+09 14.911997 129.570832 145.011126
5.541000e+09 14.795564 129.290273 144.493943
5.541250e+09 14.699638 129.487864 145.511471
5.541500e+09 14.482966 129.320633 145.627152
5.541750e+09 14.631988 129.467455 145.735855
5.542000e+09 15.019484 129.757944 146.635545
5.542250e+09 15.003966 129.965963 147.281306
5.542500e+09 14.753033 129.461566 144.606242
5.542750e+09 15.228197 130.234195 147.194927
5.543000e+09 14.835764 129.753162 145.771120
5.543250e+09 15.031929 129.627389 144.397382
5.543500e+09 15.018837 129.951268 146.819919
5.543750e+09 14.586703 129.658856 146.940803
5.544000e+09 15.015392 130.167871 146.761798
5.544250e+09 14.631886 129.621802 146.658086
5.544500e+09 14.970824 130.015211 145.681169
5.544750e+09 15.012509 130.060438 146.039533
5.545000e+09 14.629034 129.390169 142.866138
5.545250e+09 15.057250 129.643870 142.234829
5.545500e+09 14.838346 129.587081 144.577254
5.545750e+09 15.044378 129.955653 145.555839
5.546000e+09 14.621259 129.481295 144.946904
5.546250e+09 15.097102 129.718353 142.158099
5.546500e+09 15.065744 129.599114 141.503928
5.546750e+09 14.795358 129.241277 140.603236
5.547000e+09 15.251285 129.907488 142.631302
5.547250e+09 15.287474 130.051671 143.095810
5.547500e+09 14.537763 129.252392 141.280661
5.547750e+09 14.916838 129.422308 139.857929
5.548000e+09 14.465741 129.322161 143.380538
5.548250e+09 14.394399 129.438441 144.411879
5.548500e+09 14.820644 129.591653 141.081190
5.548750e+09 14.744933 129.242623 140.366389
5.549000e+09 14.759599 129.577651 141.980625
5.549250e+09 15.060148 129.675004 140.899343
5.549500e+09 14.984701 129.490647 140.525927
5.549750e+09 15.349515 129.785057 140.136656
5.550000e+09 15.016980 129.793133 142.423860
5.550250e+09 15.173480 130.202597 143.014777
5.550500e+09 14.811983 129.407150 139.869151
5.550750e+09 15.372690 129.875692 138.983088
5.551000e+09 14.773458 129.535060 140.811067
5.551250e+09 15.030755 129.687984 139.762478
5.551500e+09 14.728019 129.561625 141.359884
5.551750e+09 14.875207 129.420096 139.276192
5.552000e+09 14.756061 129.430425 139.807118
5.552250e+09 15.472337 130.107160 139.688889
5.552500e+09 15.230910 130.154994 142.210201
5.552750e+09 15.438704 130.119281 139.805557
5.553000e+09 15.196446 130.044257 141.571282
5.553250e+09 14.556887 129.300925 139.479922
5.553500e+09 15.307783 129.992055 139.842487
5.553750e+09 15.385277 130.116951 140.273368
5.554000e+09 15.040760 129.515671 137.049935
5.554250e+09 15.261166 129.964538 139.429000
5.554500e+09 14.476407 129.410268 140.776969
5.554750e+09 14.859742 129.865358 140.056952
5.555000e+09 15.049603 130.081300 140.259338
5.555250e+09 15.268801 130.121167 139.374586
5.555500e+09 15.255409 130.143614 139.348882
5.555750e+09 14.510810 129.349239 137.986877
5.556000e+09 15.138375 129.652649 135.988228
5.556250e+09 15.026319 129.903986 138.762521
5.556500e+09 14.610497 129.404767 138.164786
5.556750e+09 14.736398 129.239970 135.940462
5.557000e+09 15.356856 130.099821 138.164065
5.557250e+09 14.578012 129.378574 137.306659
5.557500e+09 14.822325 129.308585 135.534199
5.557750e+09 15.199454 129.626067 135.526131
5.558000e+09 15.025864 129.372363 134.716180
5.558250e+09 15.390153 130.256170 137.476102
5.558500e+09 15.021575 129.777855 137.027206
5.558750e+09 14.871984 129.624881 136.442880
5.559000e+09 15.023306 129.932769 138.429340
5.559250e+09 14.465771 129.411795 139.135967
5.559500e+09 14.738828 129.455532 136.095065
5.559750e+09 14.976433 129.870625 137.433749
5.560000e+09 14.652354 129.305910 136.152743
5.560250e+09 15.526260 130.030489 134.593407
5.560500e+09 15.151056 129.668079 134.321852
5.560750e+09 15.343872 129.858383 135.260211
5.561000e+09 15.424490 130.143451 135.686789
5.561250e+09 14.843516 129.409631 133.517628
5.561500e+09 15.490502 130.102981 134.651632
5.561750e+09 15.562082 129.974384 132.641097
5.562000e+09 15.146682 129.467064 131.329032
5.562250e+09 15.298145 129.994948 134.462475
5.562500e+09 14.879694 129.418553 132.202918
5.562750e+09 14.582577 129.313480 134.831921
5.563000e+09 15.062298 129.709142 133.055370
5.563250e+09 14.902243 129.701605 135.150771
5.563500e+09 15.091229 129.895259 134.845247
5.563750e+09 14.632000 129.607500 135.235831
5.564000e+09 15.230336 129.769383 132.284222
5.564250e+09 14.994374 129.285077 130.549729
5.564500e+09 15.200933 129.727188 132.158581
5.564750e+09 15.124338 129.686579 131.764399
5.565000e+09 14.943947 129.284274 130.097313
5.565250e+09 15.240510 129.832617 132.726654
5.565500e+09 15.468056 129.865901 130.449249
5.565750e+09 14.977578 129.255430 128.935156
5.566000e+09 15.066943 129.351058 128.815056
5.566250e+09 15.046947 129.478972 129.546344
5.566500e+09 15.109430 129.879266 132.072235
5.566750e+09 15.623141 130.051475 130.124035
5.567000e+09 15.244841 129.680495 129.997179
5.567250e+09 15.111411 129.410461 128.792721
5.567500e+09 15.212125 129.764331 129.820207
5.567750e+09 15.089385 129.418314 128.425631
5.568000e+09 15.219470 129.812941 130.431115
5.568250e+09 15.275469 129.998692 131.377774
5.568500e+09 15.640912 130.084754 129.054156
5.568750e+09 15.482622 130.201037 131.242409
5.569000e+09 14.713103 129.447453 131.523916
5.569250e+09 15.135691 129.882026 132.355145
5.569500e+09 15.632880 130.101869 129.609391
5.569750e+09 15.285511 129.831264 129.239252
5.570000e+09 15.302726 129.605566 127.291944
5.570250e+09 15.051489 129.302053 126.951243
5.570500e+09 15.172714 129.385934 126.520006
5.570750e+09 15.076225 129.303059 125.959267
5.571000e+09 15.171344 129.381987 125.824424
5.571250e+09 15.413129 129.798488 126.673450
5.571500e+09 15.711943 130.074822 126.889763
5.571750e+09 15.118315 129.360777 125.698569
5.572000e+09 15.209004 129.815073 128.376327
5.572250e+09 15.560393 129.990194 126.531304
5.572500e+09 15.530360 129.938527 125.625273
5.572750e+09 14.678090 129.341366 128.309834
5.573000e+09 14.929671 129.430645 126.757173
5.573250e+09 14.784675 129.423786 128.989580
5.573500e+09 15.092622 129.499871 125.984711
5.573750e+09 15.594611 130.124673 126.805813
5.574000e+09 15.348971 130.055559 127.636724
5.574250e+09 15.330591 129.760625 125.141229
5.574500e+09 15.166052 129.495558 123.933882
5.574750e+09 14.773572 129.475149 126.870889
5.575000e+09 15.029710 129.776151 127.606853
5.575250e+09 15.303427 130.087405 128.545357
5.575500e+09 14.656810 129.316469 127.789050
5.575750e+09 14.923733 129.403084 124.554392
5.576000e+09 15.339504 129.607316 123.370267
5.576250e+09 15.140562 129.876847 126.953356
5.576500e+09 15.567919 130.105562 126.028609
5.576750e+09 15.126336 129.419077 123.466055
5.577000e+09 15.252547 129.781489 125.779103
5.577250e+09 15.027041 129.601768 125.433355
5.577500e+09 15.037350 129.670163 126.347981
5.577750e+09 14.995253 129.566727 125.979777
5.578000e+09 15.076445 129.555752 124.322220
5.578250e+09 15.192773 129.873125 126.406588
5.578500e+09 15.410850 130.051614 125.815794
5.578750e+09 14.616113 129.409514 127.468757
5.579000e+09 15.328215 129.967263 126.197291
5.579250e+09 15.308297 129.964983 125.728246
5.579500e+09 14.867659 129.553547 126.007930
5.579750e+09 15.109998 129.811647 126.337001
5.580000e+09 15.206422 129.635259 122.479975
5.580250e+09 15.148806 129.532961 123.421595
5.580500e+09 15.282534 129.551190 121.509228
5.580750e+09 15.246536 129.526312 122.097835
5.581000e+09 14.977639 129.274557 122.642788
5.581250e+09 15.077360 129.320279 121.552095
5.581500e+09 15.409856 129.957711 123.502116
5.581750e+09 15.062544 129.536143 121.620861
5.582000e+09 15.104723 129.463360 120.044619
5.582250e+09 15.085032 129.712954 123.058828
5.582500e+09 15.456644 130.008062 122.955148
5.582750e+09 15.316969 129.952626 122.595963
5.583000e+09 14.850523 129.176190 120.637260
5.583250e+09 14.931929 129.448683 120.735720
5.583500e+09 15.166591 129.598146 121.128462
5.583750e+09 15.405183 130.064130 123.130040
5.584000e+09 15.140338 129.862489 123.597322
5.584250e+09 14.949269 129.275349 120.510372
5.584500e+09 15.436187 130.066425 123.311737
5.584750e+09 15.133127 129.560822 121.072291
5.585000e+09 15.584447 130.105115 122.804835
5.585250e+09 14.895175 129.321156 121.697730
5.585500e+09 14.977047 129.284970 120.908228
5.585750e+09 14.694159 129.344128 123.907300
5.586000e+09 15.062835 129.405358 120.223939
5.586250e+09 14.947059 129.247317 120.619020
5.586500e+09 14.920521 129.145971 119.825576
5.586750e+09 15.444333 130.031852 122.914202
5.587000e+09 15.256682 129.730397 121.240948
5.587250e+09 14.892423 129.184688 120.228707
5.587500e+09 14.786644 129.317294 120.702142
5.587750e+09 15.437401 129.819461 119.801023
5.588000e+09 15.012710 129.358263 119.793158
5.588250e+09 14.874088 129.502497 121.700950
5.588500e+09 14.901149 129.203910 119.252927
5.588750e+09 15.040683 129.304311 117.213578
5.589000e+09 15.198208 129.515598 117.029429
5.589250e+09 15.016026 129.224873 115.674211
5.589500e+09 15.377565 129.963128 119.562162
5.589750e+09 14.996643 129.361793 117.605210
5.590000e+09 15.147119 129.628246 119.429258
5.590250e+09 15.423578 129.729870 118.221110
5.590500e+09 15.408132 129.686068 116.845605
5.590750e+09 14.970080 129.351226 118.402575
5.591000e+09 14.985782 129.370676 116.570068
5.591250e+09 14.921849 129.136333 116.135509
5.591500e+09 15.199322 129.547795 115.213903
5.591750e+09 15.305813 129.549270 114.928412
5.592000e+09 15.144656 129.299727 113.960833
5.592250e+09 15.202637 129.722819 116.687359
5.592500e+09 15.655907 129.880605 114.816700
5.592750e+09 15.315536 129.891819 117.064881
5.593000e+09 15.245825 129.822602 116.363692
5.593250e+09 15.043063 129.392332 113.853017
5.593500e+09 15.514834 129.871470 116.655589
5.593750e+09 15.134882 129.350151 115.448075
5.594000e+09 15.001592 129.092025 114.461340
5.594250e+09 15.696124 130.036249 117.449293
5.594500e+09 15.030043 129.687177 118.765243
5.594750e+09 14.924998 129.141724 116.006246
5.595000e+09 14.991077 129.258723 116.331139
5.595250e+09 14.971343 129.338841 115.655898
5.595500e+09 15.010074 129.506157 117.852798
5.595750e+09 15.108516 129.742458 117.992306
5.596000e+09 15.613742 129.986881 115.210345
5.596250e+09 15.673602 129.912365 115.327853
5.596500e+09 15.552959 129.963341 115.104726
5.596750e+09 14.944920 129.122222 112.356569
5.597000e+09 15.322173 129.720461 115.769239
5.597250e+09 15.247524 129.425644 113.217683
5.597500e+09 15.358361 129.427821 114.063613
5.597750e+09 15.512400 129.846146 114.052361
5.598000e+09 15.146137 129.610958 116.295855
5.598250e+09 15.259528 129.789190 117.244667
5.598500e+09 15.445744 129.847461 114.039100
5.598750e+09 14.949532 129.298289 112.310088
5.599000e+09 15.450793 129.809323 112.407632
5.599250e+09 15.317611 129.765300 112.744220
5.599500e+09 15.792755 129.962602 111.224857
5.599750e+09 15.080437 129.114165 111.156659
5.600000e+09 15.087804 129.069740 110.133198
5.600250e+09 15.143943 129.232274 113.534771
5.600500e+09 14.996208 129.210115 111.718202
5.600750e+09 15.755023 129.893914 110.661020
5.601000e+09 15.592227 129.896577 113.118339
5.601250e+09 15.141687 129.234439 112.636479
5.601500e+09 15.090940 129.969408 114.893642
5.601750e+09 14.937183 129.127499 111.207365
5.602000e+09 15.517789 129.476803 110.440733
5.602250e+09 15.107687 129.038457 109.598409
5.602500e+09 15.790725 129.723653 111.267853
5.602750e+09 15.098812 129.005176 109.720097
5.603000e+09 15.146266 129.060826 110.870773
5.603250e+09 15.669314 129.838985 113.872124
5.603500e+09 15.037570 129.239365 115.086260
5.603750e+09 15.117479 129.645983 114.379557
5.604000e+09 14.899068 129.360433 112.614043
5.604250e+09 15.198286 129.677184 112.715810
5.604500e+09 15.494669 130.047602 113.264146
5.604750e+09 15.229629 129.278393 109.737303
5.605000e+09 15.357681 129.605322 111.298602
5.605250e+09 15.802080 129.895717 110.889060
5.605500e+09 15.134346 129.038820 110.253280
5.605750e+09 15.797125 129.776303 111.304830
5.606000e+09 15.231324 129.478032 113.482392
5.606250e+09 14.985177 128.973709 109.445085
5.606500e+09 15.463296 129.557952 109.679604
5.606750e+09 15.348005 129.711258 112.563764
5.607000e+09 15.041959 129.210765 112.546740
5.607250e+09 15.421774 129.316211 109.690584
5.607500e+09 15.394472 129.505505 112.401013
5.607750e+09 14.990791 129.258304 113.125982
5.608000e+09 15.194429 129.423204 113.769844
5.608250e+09 15.690647 129.757850 109.727671
5.608500e+09 14.931538 129.145825 110.530722
5.608750e+09 15.513777 129.715894 111.766431
5.609000e+09 15.137367 129.013654 109.334507
5.609250e+09 15.249127 129.013624 108.501504
5.609500e+09 15.143079 129.407471 111.976101
5.609750e+09 15.286484 129.305707 108.896996
5.610000e+09 15.066059 129.140007 108.404203
5.610250e+09 15.272690 129.369082 108.171646
5.610500e+09 15.730342 129.702767 109.075714
5.610750e+09 15.091372 129.281908 111.502462
5.611000e+09 15.209821 129.089511 107.325538
5.611250e+09 15.463786 129.458505 110.199731
5.611500e+09 15.379649 129.424567 108.725699
5.611750e+09 15.578604 129.446073 108.825012
5.612000e+09 15.807920 129.510024 107.595930
5.612250e+09 15.292471 128.945566 107.937663
5.612500e+09 15.407780 129.472523 109.236118
5.612750e+09 15.195680 128.950677 106.548274
5.613000e+09 15.221415 129.240556 108.519298
5.613250e+09 15.570104 129.346589 107.054745
5.613500e+09 15.052032 129.088849 109.177960
5.613750e+09 15.057200 129.105688 110.549590
5.614000e+09 15.151804 128.961499 106.771608
5.614250e+09 15.201297 128.959140 105.480135
5.614500e+09 15.457935 129.388235 106.949057
5.614750e+09 15.231667 129.339041 109.083888
5.615000e+09 15.188851 129.203535 110.064880
5.615250e+09 15.397313 129.049239 107.601118
5.615500e+09 15.435320 129.375491 108.471744
5.615750e+09 15.751186 129.481816 106.949847
5.616000e+09 15.744591 129.260738 106.397452
5.616250e+09 15.448736 129.324596 110.430098
5.616500e+09 15.292689 128.926648 106.571534
5.616750e+09 15.063211 128.898242 109.814069
5.617000e+09 15.219251 129.028436 106.542676
5.617250e+09 15.142219 128.862252 104.651375
5.617500e+09 15.458845 129.370802 107.112103
5.617750e+09 15.116922 128.918422 104.573569
5.618000e+09 15.493481 129.073994 107.333506
5.618250e+09 15.055635 128.993957 108.170234
5.618500e+09 15.224847 129.010027 105.265600
5.618750e+09 15.193388 128.788894 103.523156
5.619000e+09 15.386036 128.824147 103.810977
5.619250e+09 15.444193 129.227611 108.068875
5.619500e+09 15.389217 128.900943 107.044477
5.619750e+09 15.178780 128.941808 109.075628
5.620000e+09 15.362062 128.936781 106.186150
5.620250e+09 15.539043 128.902193 108.657598
5.620500e+09 15.095714 128.949501 107.909348
5.620750e+09 15.301983 128.899133 104.983582
5.621000e+09 15.579633 129.015774 103.920599
5.621250e+09 15.571567 129.247029 109.634091
5.621500e+09 14.942602 128.633433 105.467246
5.621750e+09 15.290627 129.103326 106.513313
5.622000e+09 15.426459 128.956426 103.755893
5.622250e+09 15.385327 128.662260 108.185367
5.622500e+09 15.688369 129.071149 105.271048
5.622750e+09 15.732793 129.009038 105.714665
5.623000e+09 15.639938 129.153436 105.236021
5.623250e+09 15.109839 128.762026 106.774264
5.623500e+09 15.361487 128.775035 104.958221
5.623750e+09 15.170613 128.783643 108.985117
5.624000e+09 15.529628 129.141419 105.749119
5.624250e+09 15.230542 128.653855 106.228752
5.624500e+09 15.341139 128.946859 107.035161
5.624750e+09 15.535110 129.042456 106.538286
5.625000e+09 15.057943 128.494784 103.776671
5.625250e+09 15.523649 128.977159 108.535371
5.625500e+09 15.271453 128.769882 107.781196
5.625750e+09 15.372411 128.936593 108.103683
5.626000e+09 15.325309 128.666070 107.938961
5.626250e+09 15.349315 128.907615 107.298669
5.626500e+09 15.379516 128.697064 106.393377
5.626750e+09 15.588301 129.036405 105.032987
5.627000e+09 15.397261 128.543424 102.945609
5.627250e+09 15.414729 128.596605 106.199902
5.627500e+09 15.340410 128.693073 104.843976
5.627750e+09 15.071540 128.356281 107.211096
5.628000e+09 15.044095 128.387143 104.251204
5.628250e+09 15.428395 128.617461 104.980941
5.628500e+09 15.570282 128.545939 104.426073
5.628750e+09 14.980676 128.335875 106.536101
5.629000e+09 15.557835 129.088855 107.107555
5.629250e+09 15.191866 128.454325 107.126999
5.629500e+09 15.392844 128.720702 108.062458
5.629750e+09 15.052419 128.415910 107.737338
5.630000e+09 14.951761 128.333520 108.518433
5.630250e+09 15.183915 128.395233 104.559717
5.630500e+09 14.891335 128.208601 104.927785
5.630750e+09 15.436185 128.834751 106.077079
5.631000e+09 14.757470 128.093762 104.413563
5.631250e+09 15.354442 128.502211 104.155877
5.631500e+09 15.762566 128.726723 102.254239
5.631750e+09 15.908280 128.753389 103.026185
5.632000e+09 15.667767 128.578451 105.156516
5.632250e+09 15.288740 128.201743 102.294420
5.632500e+09 15.782002 128.728885 104.948425
5.632750e+09 15.598434 128.777228 106.560289
5.633000e+09 14.575211 127.871099 106.172434
5.633250e+09 15.672236 128.684511 105.182330
5.633500e+09 15.831541 128.617614 104.026074
5.633750e+09 15.256944 128.292103 106.212913
5.634000e+09 14.739477 127.960024 106.766998
5.634250e+09 15.041889 128.170432 103.921059
5.634500e+09 15.312758 128.268787 101.778457
5.634750e+09 14.686074 127.890465 104.493926
5.635000e+09 14.805451 128.060360 105.261159
5.635250e+09 14.894744 128.037477 103.448988
5.635500e+09 15.174280 128.145305 101.643154
5.635750e+09 15.073690 128.193515 104.124531
5.636000e+09 15.714710 128.420631 102.423996
5.636250e+09 15.135972 128.016496 101.155722
5.636500e+09 14.978545 127.955415 100.569387
5.636750e+09 14.847378 127.989914 103.030750
5.637000e+09 14.622814 127.789055 103.105589
5.637250e+09 14.580402 127.746427 102.614949
5.637500e+09 15.206974 128.118420 103.401031
5.637750e+09 15.492919 128.310775 101.218511
5.638000e+09 15.512088 128.259718 103.191972
5.638250e+09 15.707225 128.270854 102.408330
5.638500e+09 15.608407 128.212120 103.659096
5.638750e+09 15.822865 128.266308 102.705657
5.639000e+09 14.654051 127.609810 102.710780
5.639250e+09 14.548408 127.679524 103.889335
5.639500e+09 15.110644 127.726485 102.707814
5.639750e+09 15.706213 128.190323 101.575574
5.640000e+09 15.197547 127.856653 100.272221
5.640250e+09 14.903382 127.702296 99.682785
5.640500e+09 14.958630 127.866386 102.761282
5.640750e+09 15.712050 128.224795 101.933537
5.641000e+09 15.673812 128.068176 101.255667
5.641250e+09 14.997084 127.674785 100.009543
5.641500e+09 15.200053 127.946989 102.639277
5.641750e+09 15.305610 128.014359 104.481189
5.642000e+09 15.051806 127.705595 102.063577
5.642250e+09 14.474952 127.433947 102.415684
5.642500e+09 15.375528 127.918199 101.109904
5.642750e+09 15.241281 127.756324 99.643721
5.643000e+09 14.511530 127.356882 100.198417
5.643250e+09 15.606010 127.980759 100.419834
5.643500e+09 15.447628 127.946410 102.575149
5.643750e+09 15.389822 127.933185 104.179320
5.644000e+09 15.431052 127.945678 105.019074
5.644250e+09 15.538885 127.878622 102.715087
5.644500e+09 15.369290 127.849965 103.898791
5.644750e+09 14.500450 127.278644 103.110767
5.645000e+09 15.261669 127.822702 104.087769
5.645250e+09 14.447664 127.233498 103.338720
5.645500e+09 14.563630 127.395368 104.177536
5.645750e+09 14.411486 127.198768 102.504496
5.646000e+09 14.461998 127.287665 103.321607
5.646250e+09 15.401133 127.834405 103.648162
5.646500e+09 14.700632 127.264178 101.633876
5.646750e+09 15.548216 127.813373 101.704457
5.647000e+09 14.473570 127.149100 101.815386
5.647250e+09 15.455539 127.723744 101.267398
5.647500e+09 15.670568 127.811473 101.583027
5.647750e+09 14.816088 127.346511 103.087758
5.648000e+09 15.047266 127.528006 104.158801
5.648250e+09 15.012336 127.363715 101.600121
5.648500e+09 14.693843 127.150315 99.663972
5.648750e+09 14.823277 127.229074 98.735641
5.649000e+09 15.144243 127.509137 101.052474
5.649250e+09 15.039612 127.324389 99.607668
5.649500e+09 14.458589 126.967907 99.048553
5.649750e+09 15.325526 127.545000 100.688579
5.650000e+09 15.154750 127.442863 102.361580
5.650250e+09 15.190453 127.469866 103.317716
5.650500e+09 15.540330 127.598876 102.720261
5.650750e+09 14.664640 127.001499 100.706798
5.651000e+09 15.101258 127.283803 99.390706
5.651250e+09 14.806283 127.178188 101.314925
5.651500e+09 14.515752 126.936039 100.100653
5.651750e+09 15.380623 127.439259 99.710456
5.652000e+09 14.376905 126.849217 100.763285
5.652250e+09 15.316228 127.417815 100.714668
5.652500e+09 14.761921 127.086360 102.017873
5.652750e+09 14.955976 127.121386 100.016541
5.653000e+09 14.723772 127.056839 101.600617
5.653250e+09 15.071737 127.176692 100.115636
5.653500e+09 14.864918 126.998181 98.356129
5.653750e+09 15.276130 127.308186 100.014363
5.654000e+09 15.236342 127.281561 101.419492
5.654250e+09 14.261162 126.621943 100.569324
5.654500e+09 15.060172 127.116791 99.273479
5.654750e+09 15.438755 127.321309 99.484905
5.655000e+09 15.412835 127.301693 100.446801
5.655250e+09 15.223582 127.209761 101.575808
5.655500e+09 14.222310 126.548284 100.559976
5.655750e+09 14.860977 127.049059 101.965478
5.656000e+09 15.149889 127.177949 102.508340
5.656250e+09 14.416771 126.607768 99.898690
5.656500e+09 15.137445 127.092247 98.933701
5.656750e+09 15.423577 127.204716 99.447075
5.657000e+09 14.551907 126.622571 97.892403
5.657250e+09 14.952528 127.007115 100.057326
5.657500e+09 15.180379 127.042688 99.190986
5.657750e+09 15.144886 127.040784 100.442192
5.658000e+09 14.947825 126.944696 101.626568
5.658250e+09 14.864736 126.801543 98.673992
5.658500e+09 14.512050 126.659522 101.000909
5.658750e+09 15.195025 127.051374 100.067263
5.659000e+09 14.264784 126.396329 98.491219
5.659250e+09 15.206707 127.054845 99.177117
5.659500e+09 14.311951 126.464088 100.731794
5.659750e+09 14.498718 126.574688 98.145570
5.660000e+09 14.257850 126.474441 100.259938
5.660250e+09 15.088127 126.938567 98.884856
5.660500e+09 15.283177 126.958373 98.374451
5.660750e+09 15.021817 126.779348 97.095550
5.661000e+09 14.224911 126.336792 99.219475
5.661250e+09 14.298601 126.393109 97.462172
5.661500e+09 15.107887 126.890693 97.017731
5.661750e+09 14.915219 126.680384 95.877407
5.662000e+09 15.073087 126.784642 95.662465
5.662250e+09 15.319087 126.929985 96.870998
5.662500e+09 15.232385 126.846456 96.748118
5.662750e+09 14.091025 126.171479 98.119944
5.663000e+09 14.315080 126.437568 100.379959
5.663250e+09 14.049748 126.185323 98.347006
5.663500e+09 15.076705 126.868559 98.872464
5.663750e+09 15.267152 126.885450 99.147449
5.664000e+09 14.720840 126.466715 96.828260
5.664250e+09 14.658946 126.447495 95.690080
5.664500e+09 14.002284 126.058490 96.444103
5.664750e+09 14.177954 126.208904 96.042252
5.665000e+09 14.930360 126.665291 95.750314
5.665250e+09 14.293770 126.257829 98.674917
5.665500e+09 14.378604 126.381675 100.718448
5.665750e+09 14.327137 126.353154 101.645250
5.666000e+09 14.635241 126.533917 101.977366
5.666250e+09 15.108564 126.739094 99.937594
5.666500e+09 14.082134 126.006446 97.845285
5.666750e+09 14.351146 126.235549 96.212531
5.667000e+09 14.997212 126.619853 96.043918
5.667250e+09 13.923078 125.916963 97.287295
5.667500e+09 15.029135 126.684596 97.573020
5.667750e+09 14.205249 126.129441 99.582062
5.668000e+09 14.015091 125.990724 96.939000
5.668250e+09 15.004626 126.647530 97.259893
5.668500e+09 14.899552 126.534375 99.397804
5.668750e+09 13.880374 125.860417 99.086914
5.669000e+09 13.743214 125.865468 99.026971
5.669250e+09 14.208164 126.128471 95.859550
5.669500e+09 14.685583 126.365515 95.149423
5.669750e+09 14.772552 126.368678 94.747298
5.670000e+09 13.862972 125.808459 96.821956
5.670250e+09 14.694567 126.378823 95.539242
5.670500e+09 15.005178 126.550953 97.582835
5.670750e+09 14.613266 126.211188 95.815323
5.671000e+09 13.823758 125.772604 97.430720
5.671250e+09 14.809973 126.440980 96.320261
5.671500e+09 13.842636 125.751572 97.174033
5.671750e+09 14.011277 125.916321 95.205953
5.672000e+09 14.061122 125.999904 99.226136
5.672250e+09 14.853304 126.494456 98.886734
5.672500e+09 14.634987 126.286637 100.229266
5.672750e+09 14.794718 126.315340 97.640782
5.673000e+09 13.906288 125.742708 96.355047
5.673250e+09 13.861390 125.834951 99.255981
5.673500e+09 13.652850 125.681898 98.517019
5.673750e+09 14.767873 126.427988 99.005227
5.674000e+09 14.262478 126.029084 100.745302
5.674250e+09 13.951508 125.855737 101.082845
5.674500e+09 13.626283 125.638649 98.880738
5.674750e+09 14.163427 126.050510 100.948233
5.675000e+09 14.851483 126.413114 99.814220
5.675250e+09 13.922085 125.702618 97.317374
5.675500e+09 14.760889 126.285823 96.262029
5.675750e+09 14.993931 126.404627 97.304385
5.676000e+09 13.819198 125.609284 96.430914
5.676250e+09 14.856229 126.365601 97.601510
5.676500e+09 14.809672 126.243105 96.152891
5.676750e+09 14.231811 125.921441 99.399178
5.677000e+09 13.788061 125.688929 99.863310
5.677250e+09 13.935692 125.841783 100.653835
5.677500e+09 14.811570 126.321323 98.763057
5.677750e+09 14.292414 125.891090 95.523674
5.678000e+09 13.736529 125.571290 95.719118
5.678250e+09 14.166069 125.971521 99.176146
5.678500e+09 13.670188 125.572702 96.019847
5.678750e+09 14.196008 125.911943 94.198345
5.679000e+09 14.773358 126.272459 96.561945
5.679250e+09 14.395564 125.930402 94.315243
5.679500e+09 14.883436 126.262863 95.270779
5.679750e+09 14.044429 125.681517 94.246027
5.680000e+09 13.588622 125.483299 96.057770
5.680250e+09 14.720323 126.275381 96.465135
5.680500e+09 14.903454 126.258510 95.969843
5.680750e+09 13.813671 125.526251 94.821729
5.681000e+09 13.712397 125.594390 98.284356
5.681250e+09 14.354802 126.056162 99.512701
5.681500e+09 14.792553 126.229434 97.656188
5.681750e+09 14.713274 126.159001 98.696000
5.682000e+09 14.840434 126.196362 97.290500
5.682250e+09 14.566553 126.057831 99.534279
5.682500e+09 14.182187 125.852988 100.593228
5.682750e+09 14.550740 126.114762 100.328085
5.683000e+09 13.594826 125.438881 99.010308
5.683250e+09 13.464862 125.438280 98.694685
5.683500e+09 13.442838 125.432876 96.382740
5.683750e+09 14.584502 126.160454 95.744415
5.684000e+09 14.807142 126.166969 95.792936
5.684250e+09 14.888792 126.204590 96.366858
5.684500e+09 14.083872 125.654553 94.018396
5.684750e+09 13.977315 125.655079 93.380733
5.685000e+09 13.720546 125.514209 93.551078
5.685250e+09 14.539115 126.120877 96.829835
5.685500e+09 14.511621 126.041686 98.668126
5.685750e+09 13.766325 125.570371 99.480226
5.686000e+09 14.670085 126.158735 97.524297
5.686250e+09 13.593063 125.386679 95.990449
5.686500e+09 13.466907 125.392700 95.371946
5.686750e+09 13.891504 125.733762 98.481259
5.687000e+09 14.613203 126.147858 98.270725
5.687250e+09 14.586977 126.080004 99.133686
5.687500e+09 13.521310 125.355424 96.588160
5.687750e+09 14.650604 126.147607 96.233566
5.688000e+09 14.478094 126.010022 98.809041
5.688250e+09 13.918586 125.600116 94.329138
5.688500e+09 14.700205 126.151838 95.447214
5.688750e+09 13.960390 125.654411 99.080564
5.689000e+09 13.635329 125.511079 99.329019
5.689250e+09 13.936271 125.676850 94.765266
5.689500e+09 14.682284 126.149674 96.263902
5.689750e+09 14.719929 126.124052 97.530749
5.690000e+09 13.612701 125.407915 98.406679
5.690250e+09 13.494473 125.441408 98.750357
5.690500e+09 13.850258 125.713972 99.388887
5.690750e+09 14.610101 126.137222 97.410922
5.691000e+09 13.462036 125.317616 97.335186
5.691250e+09 14.472202 126.045073 95.571870
5.691500e+09 13.431818 125.315213 96.818889
5.691750e+09 13.379178 125.361453 94.745077
5.692000e+09 13.575527 125.494781 93.329793
5.692250e+09 14.052491 125.844513 97.171403
5.692500e+09 13.811048 125.598159 93.325676
5.692750e+09 14.522727 126.047927 93.709597
5.693000e+09 14.129122 125.796527 97.752180
5.693250e+09 13.949597 125.667516 93.394545
5.693500e+09 14.625267 126.126044 95.344858
5.693750e+09 14.572235 126.063124 97.221766
5.694000e+09 13.685471 125.493782 98.666149
5.694250e+09 14.549816 126.120250 96.895638
5.694500e+09 14.533850 126.004191 94.513022
5.694750e+09 14.168302 125.822897 98.014295
5.695000e+09 14.622837 126.123383 97.371065
5.695250e+09 13.432660 125.311268 95.812502
5.695500e+09 13.422075 125.426327 98.184471
5.695750e+09 14.460371 126.086415 95.776985
5.696000e+09 13.471462 125.378985 97.732602
5.696250e+09 14.047455 125.867033 98.945323
5.696500e+09 13.739467 125.582651 94.320992
5.696750e+09 13.819200 125.687972 97.477584
5.697000e+09 14.547574 126.133584 96.757880
5.697250e+09 14.301320 125.941762 98.549529
5.697500e+09 13.749838 125.630340 99.491515
5.697750e+09 14.493750 126.103457 96.402346
5.698000e+09 13.498644 125.405706 94.342125
5.698250e+09 13.693007 125.651236 98.371021
5.698500e+09 13.246328 125.342367 95.599667
5.698750e+09 13.948872 125.805798 93.206090
5.699000e+09 14.104277 125.836381 92.332521
5.699250e+09 14.541077 126.105984 93.506540
5.699500e+09 13.387420 125.341116 94.252666
5.699750e+09 13.327589 125.399949 93.287529
5.700000e+09 14.377950 126.075814 93.378866
