! S21 sweep bladeRF - TX0=38 db | RX0=50 db | RX1=50 db - 2025-12-04T20:46:08
# Frequency [MHz], |S21| [db], |Mag_meas| [db], Phase [deg]
5.100000e+09 -24.243775 104.048573 30.261722
5.100250e+09 -24.431470 104.189603 29.013401
5.100500e+09 -23.924553 103.847570 32.162790
5.100750e+09 -24.163905 103.955630 31.078901
5.101000e+09 -24.057638 104.145792 29.216408
5.101250e+09 -24.084826 104.160300 28.470280
5.101500e+09 -24.396143 103.773611 30.891624
5.101750e+09 -23.605154 104.170162 28.442481
5.102000e+09 -23.722225 92.872445 27.167386
5.102250e+09 -24.252357 103.910646 29.539353
5.102500e+09 -23.879208 103.789927 30.052379
5.102750e+09 -24.004509 104.230497 27.741730
5.103000e+09 -23.967530 104.269688 27.699492
5.103250e+09 -24.204621 103.630561 30.084135
5.103500e+09 -23.660051 104.197469 27.558684
5.103750e+09 -23.835278 104.151426 27.968180
5.104000e+09 -23.933803 104.246407 27.450537
5.104250e+09 -24.339925 103.698768 29.070503
5.104500e+09 -23.981431 103.525155 31.435254
5.104750e+09 -23.759352 103.723639 29.952289
5.105000e+09 -23.912960 104.238355 28.565116
5.105250e+09 -23.838422 103.602010 30.580900
5.105500e+09 -23.701801 103.746526 29.534744
5.105750e+09 -23.599785 103.891350 28.231778
5.106000e+09 -24.339096 103.493387 29.647861
5.106250e+09 -24.352006 103.612906 28.564194
5.106500e+09 -23.871488 47.085277 29.766825
5.106750e+09 -23.728755 103.644262 28.081122
5.107000e+09 -23.671879 103.811475 29.212371
5.107250e+09 -23.935470 99.375758 29.678268
5.107500e+09 -24.206707 99.637817 29.148500
5.107750e+09 -23.810207 103.498494 28.813718
5.108000e+09 -23.722267 103.919130 27.215247
5.108250e+09 -23.995537 103.992850 26.438966
5.108500e+09 -23.906481 104.008163 25.797385
5.108750e+09 -24.108750 103.296250 28.345881
5.109000e+09 -23.879828 104.000148 25.556336
5.109250e+09 -24.277333 103.585263 26.880067
5.109500e+09 -23.949854 103.937844 25.477667
5.109750e+09 -24.059935 103.221295 28.198177
5.110000e+09 -24.273205 103.345427 27.180679
5.110250e+09 -24.154964 103.194086 27.706281
5.110500e+09 -24.012255 103.828246 25.545192
5.110750e+09 -24.135108 98.422421 25.453755
5.111000e+09 -23.835168 103.889227 24.847448
5.111250e+09 -24.209295 103.583450 25.848142
5.111500e+09 -24.165183 103.542513 25.480712
5.111750e+09 -23.892867 103.048646 27.353806
5.112000e+09 -23.622802 103.837412 24.096731
5.112250e+09 -24.051494 103.057813 27.782474
5.112500e+09 -23.901745 103.090665 27.993506
5.112750e+09 -24.124302 103.588301 25.650515
5.113000e+09 -23.775201 96.731397 25.593187
5.113250e+09 -23.661024 98.124199 25.691911
5.113500e+09 -24.103028 103.042176 27.167251
5.113750e+09 -23.917626 103.666854 25.042543
5.114000e+09 -23.621275 100.327966 25.431658
5.114250e+09 -23.642061 103.292284 26.042341
5.114500e+09 -23.730056 102.807741 27.690468
5.114750e+09 -24.142798 102.930749 22.776470
5.115000e+09 -23.956716 101.012229 21.245819
5.115250e+09 -23.749309 103.501393 23.800863
5.115500e+09 -23.849374 102.881795 26.625326
5.115750e+09 -23.821442 103.526516 24.565901
5.116000e+09 -24.044470 102.825342 27.261786
5.116250e+09 -24.430229 102.802466 26.959668
5.116500e+09 -24.176372 89.993135 24.367224
5.116750e+09 -24.245503 103.012479 24.764852
5.117000e+09 -23.704330 102.892696 25.224137
5.117250e+09 -23.759159 103.434871 23.759042
5.117500e+09 -23.612769 102.975172 24.918845
5.117750e+09 -24.104404 103.212429 24.270429
5.118000e+09 -24.227686 102.958196 24.636440
5.118250e+09 -24.139391 100.766356 23.992841
5.118500e+09 -23.833001 103.139218 23.341264
5.118750e+09 -24.193648 91.279969 24.727276
5.119000e+09 -23.975967 102.609114 26.046084
5.119250e+09 -23.725474 102.721198 25.307030
5.119500e+09 -23.585331 102.945082 24.003198
5.119750e+09 -23.652314 103.119557 23.928264
5.120000e+09 -23.596861 102.900913 24.591709
5.120250e+09 -23.802111 102.554269 26.380975
5.120500e+09 -24.024218 102.446256 26.736578
5.120750e+09 -23.584806 94.284641 23.333592
5.121000e+09 -23.860523 103.102321 23.607566
5.121250e+09 -23.639488 90.345469 22.779316
5.121500e+09 -23.799996 102.477711 25.783116
5.121750e+09 -23.613850 102.664129 24.581767
5.122000e+09 -24.033296 91.315634 25.999391
5.122250e+09 -23.730524 82.859376 24.263069
5.122500e+09 -23.739120 101.646300 24.760536
5.122750e+09 -23.878707 103.004854 22.753687
5.123000e+09 -24.154630 102.744193 23.913486
5.123250e+09 -23.712834 88.998779 24.067253
5.123500e+09 -23.944068 102.538503 22.815359
5.123750e+09 -23.635179 93.212603 23.290400
5.124000e+09 -24.008848 102.825341 22.620967
5.124250e+09 -24.026109 101.534753 25.271504
5.124500e+09 -23.833895 102.193292 24.650965
5.124750e+09 -23.915837 102.784152 22.273523
5.125000e+09 -24.023333 102.709130 22.586011
5.125250e+09 -24.039317 100.560120 23.017048
5.125500e+09 -24.154580 93.173012 24.464866
5.125750e+09 -24.113820 99.466239 24.987007
5.126000e+09 -23.728047 102.181544 23.551661
5.126250e+09 -23.959654 102.645619 22.295673
5.126500e+09 -23.738728 99.301308 21.618709
5.126750e+09 -24.297478 102.164447 24.370919
5.127000e+09 -23.708349 99.416323 22.966104
5.127250e+09 -24.143009 100.504070 25.878839
5.127500e+09 -23.839042 101.922224 24.227706
5.127750e+09 -23.950101 73.624722 22.021185
5.128000e+09 -24.174280 102.073221 23.932766
5.128250e+09 -24.202659 101.683844 19.299489
5.128500e+09 -24.167994 101.937372 22.261970
5.128750e+09 -23.737948 102.015329 22.101113
5.129000e+09 -24.199558 96.891497 24.642600
5.129250e+09 -23.694111 101.628419 21.585554
5.129500e+09 -24.023521 95.263554 22.920867
5.129750e+09 -23.782013 96.265892 20.404770
5.130000e+09 -23.760187 101.996583 22.021642
5.130250e+09 -24.161253 92.878661 22.481603
5.130500e+09 -23.891077 102.258153 20.755515
5.130750e+09 -24.254817 101.727060 23.583193
5.131000e+09 -23.858542 96.934707 23.722206
5.131250e+09 -24.013449 101.506537 23.952278
5.131500e+09 -23.856262 94.714385 22.119541
5.131750e+09 -23.738591 95.757757 21.629236
5.132000e+09 -24.087943 101.481601 24.838603
5.132250e+09 -23.940600 101.494831 23.784263
5.132500e+09 -23.851309 101.950018 20.712587
5.132750e+09 -24.058407 101.987177 22.611092
5.133000e+09 -23.957158 99.395756 20.525067
5.133250e+09 -24.128162 101.380569 24.191157
5.133500e+09 -24.130352 101.521766 23.863741
5.133750e+09 -24.165353 101.862157 20.816375
5.134000e+09 -24.105769 101.383587 23.483052
5.134250e+09 -23.794214 101.508024 21.376311
5.134500e+09 -24.064709 89.962755 24.246230
5.134750e+09 -23.901497 98.325881 23.246989
5.135000e+09 -24.138963 101.276891 21.653017
5.135250e+09 -23.896698 101.220994 23.046049
5.135500e+09 -23.697794 101.617162 21.030635
5.135750e+09 -23.989521 98.787482 21.447200
5.136000e+09 -23.949856 100.526392 20.918796
5.136250e+09 -23.890005 101.304588 20.380578
5.136500e+09 -23.826233 101.090260 22.333040
5.136750e+09 -23.856558 101.086531 23.190984
5.137000e+09 -24.267198 90.187502 24.394457
5.137250e+09 -24.021069 101.627742 20.071035
5.137500e+09 -24.121454 91.895091 23.732622
5.137750e+09 -23.743235 101.229667 21.350687
5.138000e+09 -24.245257 100.786539 23.294520
5.138250e+09 -23.823356 101.164467 22.820447
5.138500e+09 -23.716298 89.140075 21.683026
5.138750e+09 -23.747440 101.321018 22.061237
5.139000e+09 -24.267979 99.943155 23.597268
5.139250e+09 -24.191202 100.883262 22.918639
5.139500e+09 -23.839437 100.473380 21.736295
5.139750e+09 -23.755359 101.137061 22.518642
5.140000e+09 -23.951963 86.820270 20.923772
5.140250e+09 -23.716951 101.285495 21.076185
5.140500e+09 -23.740582 91.184855 21.096772
5.140750e+09 -23.296120 101.366006 20.975270
5.141000e+09 -23.816889 101.278156 21.008424
5.141250e+09 -24.192025 98.595889 21.517436
5.141500e+09 -23.794958 100.864771 21.984034
5.141750e+09 -23.781829 101.152408 21.440394
5.142000e+09 -24.241189 93.721547 22.165356
5.142250e+09 -24.262034 100.639909 21.894224
5.142500e+09 -23.910028 101.198736 20.052775
5.142750e+09 -23.757344 100.940810 21.607810
5.143000e+09 -24.339509 100.664346 22.374387
5.143250e+09 -23.731718 101.064848 21.516735
5.143500e+09 -23.754821 101.081320 20.934303
5.143750e+09 -23.865381 98.464083 22.429892
5.144000e+09 -24.203417 100.466628 22.544365
5.144250e+09 -24.208740 100.900687 20.990672
5.144500e+09 -23.643417 100.964795 20.506268
5.144750e+09 -23.782659 90.449450 21.557972
5.145000e+09 -23.969708 100.367293 22.881789
5.145250e+09 -24.043008 100.336666 22.670209
5.145500e+09 -24.255245 96.129446 22.006731
5.145750e+09 -23.815463 94.631658 20.725417
5.146000e+09 -23.780896 93.496379 20.219191
5.146250e+09 -24.207230 100.415904 21.292250
5.146500e+09 -23.916143 100.295409 22.151750
5.146750e+09 -23.782202 100.883408 20.882942
5.147000e+09 -23.707404 100.715720 21.552716
5.147250e+09 -24.070310 100.226927 21.790128
5.147500e+09 -23.957908 99.533779 22.587928
5.147750e+09 -24.081300 100.743292 20.799949
5.148000e+09 -23.737175 86.202430 20.745007
5.148250e+09 -24.247483 98.134742 21.310519
5.148500e+09 -23.990782 100.774383 20.027160
5.148750e+09 -23.928501 96.758149 19.844841
5.149000e+09 -23.943045 94.310617 21.826512
5.149250e+09 -23.856925 100.123967 22.613153
5.149500e+09 -23.934316 100.075199 21.998166
5.149750e+09 -23.816192 99.463116 22.175023
5.150000e+09 -24.214771 98.019204 19.878659
5.150250e+09 -23.833105 100.604414 20.610767
5.150500e+09 -24.145156 99.886356 21.890465
5.150750e+09 -23.755906 100.504676 20.953980
5.151000e+09 -23.999953 100.535403 20.035470
5.151250e+09 -24.099183 99.808027 21.579244
5.151500e+09 -24.208187 100.202732 20.626190
5.151750e+09 -23.964374 100.509872 19.864883
5.152000e+09 -24.231540 99.750423 21.147634
5.152250e+09 -23.837773 99.901569 21.971403
5.152500e+09 -23.795408 92.455723 20.858403
5.152750e+09 -24.050097 100.305808 20.516599
5.153000e+09 -23.801236 98.415217 20.011401
5.153250e+09 -23.765112 97.684757 20.782472
5.153500e+09 -23.841869 96.463181 20.614919
5.153750e+09 -23.845384 99.922078 20.835770
5.154000e+09 -24.030939 99.650996 21.654013
5.154250e+09 -23.854184 99.785037 21.867826
5.154500e+09 -24.091844 98.269772 21.125410
5.154750e+09 -23.753420 100.230592 20.099726
5.155000e+09 -23.800594 99.007622 21.181881
5.155250e+09 -23.694569 95.066903 19.920988
5.155500e+09 -24.152696 98.688444 20.512850
5.155750e+09 -23.754374 91.938780 20.385136
5.156000e+09 -23.870404 99.634011 21.254425
5.156250e+09 -24.029302 99.462396 21.613786
5.156500e+09 -24.151938 98.169923 20.701803
5.156750e+09 -23.987303 82.353020 19.972136
5.157000e+09 -23.747004 99.703677 20.808902
5.157250e+09 -24.211683 99.580286 20.695684
5.157500e+09 -23.787758 78.533285 20.166388
5.157750e+09 -24.125768 99.468388 20.420785
5.158000e+09 -24.007538 100.054078 19.283680
5.158250e+09 -24.167613 97.852975 20.552617
5.158500e+09 -24.217375 96.457448 20.700847
5.158750e+09 -24.169301 99.808901 19.941786
5.159000e+09 -24.117198 98.526051 20.593967
5.159250e+09 -23.846229 97.213157 21.342299
5.159500e+09 -23.841507 85.372064 21.481563
5.159750e+09 -24.185276 99.414891 21.153843
5.160000e+09 -24.107517 99.797110 19.882396
5.160250e+09 -23.891184 87.697008 20.674132
5.160500e+09 -23.743591 99.747436 20.203927
5.160750e+09 -24.294055 94.679460 20.155810
5.161000e+09 -23.629797 99.473537 20.670887
5.161250e+09 -23.973324 96.530133 20.670988
5.161500e+09 -24.045138 99.745900 19.731569
5.161750e+09 -24.106154 99.059390 20.632173
5.162000e+09 -23.801449 88.213159 20.327222
5.162250e+09 -24.146005 99.256639 20.330890
5.162500e+09 -24.097954 99.025083 20.683236
5.162750e+09 -24.208568 99.239389 20.395698
5.163000e+09 -23.765130 99.313195 20.332962
5.163250e+09 -24.083176 99.398811 19.579206
5.163500e+09 -23.876067 99.097735 20.262482
5.163750e+09 -24.041203 99.726180 19.462579
5.164000e+09 -23.792748 99.378891 19.681998
5.164250e+09 -24.123296 99.249188 19.664216
5.164500e+09 -24.195583 99.274873 19.557571
5.164750e+09 -23.736568 99.209307 19.843650
5.165000e+09 -24.117551 91.599593 19.415107
5.165250e+09 -23.784739 96.644854 19.557702
5.165500e+09 -23.853185 99.122795 18.728819
5.165750e+09 -23.812181 96.665936 19.928679
5.166000e+09 -23.972781 98.873350 20.274949
5.166250e+09 -23.999391 99.032038 19.510441
5.166500e+09 -23.972694 99.356776 19.063780
5.166750e+09 -23.733779 99.227680 19.403940
5.167000e+09 -23.963240 96.916333 20.263016
5.167250e+09 -23.761939 99.099685 20.045656
5.167500e+09 -23.992925 96.202991 20.689200
5.167750e+09 -24.042199 98.673716 20.557693
5.168000e+09 -24.045195 96.904302 19.227525
5.168250e+09 -23.833010 98.959466 18.941082
5.168500e+09 -23.907499 96.437910 19.468737
5.168750e+09 -24.033444 96.586489 20.245337
5.169000e+09 -23.744179 99.070412 19.635688
5.169250e+09 -24.153200 92.165793 18.804855
5.169500e+09 -23.721605 69.156159 18.842219
5.169750e+09 -23.821185 87.061573 18.451645
5.170000e+09 -23.786903 99.177359 18.492970
5.170250e+09 -23.992501 99.070913 18.654976
5.170500e+09 -23.822134 96.461106 18.389331
5.170750e+09 -23.859619 99.118771 18.256793
5.171000e+09 -24.068614 99.034834 18.234070
5.171250e+09 -24.197620 98.743689 18.411007
5.171500e+09 -24.153229 98.300652 19.252379
5.171750e+09 -24.036551 98.965921 18.838500
5.172000e+09 -23.887010 97.164282 18.041255
5.172250e+09 -23.983475 99.028089 17.983803
5.172500e+09 -23.858917 92.674093 18.514480
5.172750e+09 -24.018753 92.585102 19.457473
5.173000e+09 -23.980794 98.981148 18.524792
5.173250e+09 -24.111940 98.390254 18.816077
5.173500e+09 -23.795256 96.498852 18.191859
5.173750e+09 -24.016567 95.056377 18.727358
5.174000e+09 -23.985823 98.929215 18.172014
5.174250e+09 -23.777327 85.165975 17.589598
5.174500e+09 -23.959759 96.315500 18.506403
5.174750e+09 -23.690295 42.686855 17.853312
5.175000e+09 -23.903009 93.815379 18.322499
5.175250e+09 -23.929016 98.924505 17.867178
5.175500e+09 -23.778166 98.730853 17.564971
5.175750e+09 -24.116198 98.689951 17.209799
5.176000e+09 -24.121969 98.466033 17.397779
5.176250e+09 -24.048477 98.766408 17.315394
5.176500e+09 -23.865103 97.872054 16.931296
5.176750e+09 -24.033810 98.639302 17.456349
5.177000e+09 -24.165753 98.532772 16.756261
5.177250e+09 -23.927643 98.184188 17.966821
5.177500e+09 -23.884583 98.733746 17.181241
5.177750e+09 -23.886929 98.710209 16.677431
5.178000e+09 -23.990025 98.704451 16.700280
5.178250e+09 -23.867007 68.040801 16.214123
5.178500e+09 -23.828884 98.164066 17.492210
5.178750e+09 -23.841673 98.110008 18.143411
5.179000e+09 -24.136639 96.691237 17.727421
5.179250e+09 -23.954429 98.534821 17.048045
5.179500e+09 -23.793834 98.321033 17.150342
5.179750e+09 -24.183872 98.136523 17.018968
5.180000e+09 -24.185475 95.744252 17.582519
5.180250e+09 -23.817490 98.503126 16.653870
5.180500e+09 -23.818562 98.423321 16.665907
5.180750e+09 -23.939685 96.030952 16.270266
5.181000e+09 -23.840715 90.666862 16.315478
5.181250e+09 -24.007962 87.238540 16.378939
5.181500e+09 -23.826269 97.463372 16.158054
5.181750e+09 -23.848637 95.650710 16.896482
5.182000e+09 -24.174722 98.020394 16.387320
5.182250e+09 -23.951027 98.312373 16.232609
5.182500e+09 -24.153429 93.991063 15.920700
5.182750e+09 -23.907090 98.274722 15.439951
5.183000e+09 -24.020612 97.692155 16.594569
5.183250e+09 -24.092412 95.232679 17.264418
5.183500e+09 -24.249142 97.732633 16.204473
5.183750e+09 -23.975154 98.239347 15.515042
5.184000e+09 -24.147842 95.013036 16.493914
5.184250e+09 -23.950173 97.714915 15.377077
5.184500e+09 -24.002671 94.644415 16.430126
5.184750e+09 -23.922898 89.156726 15.663088
5.185000e+09 -24.040740 96.218030 15.076062
5.185250e+09 -24.147106 97.454669 15.833699
5.185500e+09 -24.221911 98.016469 15.232884
5.185750e+09 -24.103810 98.099361 14.566997
5.186000e+09 -24.361937 97.827920 14.808103
5.186250e+09 -24.385264 97.422912 15.698289
5.186500e+09 -24.203064 97.979593 14.653871
5.186750e+09 -24.216853 92.484859 14.264298
5.187000e+09 -24.423347 95.453536 14.492239
5.187250e+09 -24.255789 97.300425 15.060031
5.187500e+09 -24.072699 93.611574 15.636543
5.187750e+09 -24.069068 83.410099 14.093911
5.188000e+09 -24.476210 96.971278 14.972834
5.188250e+09 -24.392406 97.752259 14.318590
5.188500e+09 -24.314778 97.441426 14.000842
5.188750e+09 -24.336036 97.785655 13.625559
5.189000e+09 -24.332750 95.379514 14.644476
5.189250e+09 -24.413394 97.663852 14.042209
5.189500e+09 -24.201741 97.187554 14.645430
5.189750e+09 -24.316787 95.050285 15.310697
5.190000e+09 -24.547433 97.560342 14.231654
5.190250e+09 -24.605862 97.037916 14.389894
5.190500e+09 -24.598332 76.209683 14.080981
5.190750e+09 -24.442114 95.341675 14.679015
5.191000e+09 -24.438084 90.538715 14.857494
5.191250e+09 -24.488052 94.353985 15.123631
5.191500e+09 -24.582540 82.582754 14.494384
5.191750e+09 -24.504343 97.319443 13.818948
5.192000e+09 -24.478652 82.718054 12.988856
5.192250e+09 -24.391635 96.945688 13.929185
5.192500e+09 -24.536563 96.723572 14.239424
5.192750e+09 -24.719554 91.541236 14.313089
5.193000e+09 -24.631675 94.166622 14.889336
5.193250e+09 -24.456613 97.037327 13.915362
5.193500e+09 -24.803012 96.588567 14.192793
5.193750e+09 -24.751879 97.072942 13.668917
5.194000e+09 -24.867152 96.797130 13.714759
5.194250e+09 -24.872903 90.812630 13.717404
5.194500e+09 -24.645508 96.464741 14.196421
5.194750e+09 -24.718713 87.640734 13.343540
5.195000e+09 -24.699653 97.008723 13.102449
5.195250e+09 -24.590141 96.581063 13.706601
5.195500e+09 -24.643807 96.432909 14.111569
5.195750e+09 -24.916109 63.320558 13.574893
5.196000e+09 -24.980305 96.581964 13.773293
5.196250e+09 -24.792456 94.537820 14.419953
5.196500e+09 -24.914934 96.795147 13.800107
5.196750e+09 -24.865401 96.852686 13.176564
5.197000e+09 -24.715835 94.104082 14.065410
5.197250e+09 -25.048162 96.171830 14.627282
5.197500e+09 -24.777130 96.648213 13.626475
5.197750e+09 -24.749807 96.545396 13.624961
5.198000e+09 -24.939247 81.523156 13.828726
5.198250e+09 -25.123136 96.123922 14.146254
5.198500e+09 -25.111058 95.889273 14.450878
5.198750e+09 -24.991673 96.589389 13.780253
5.199000e+09 -25.014541 96.496341 13.885645
5.199250e+09 -24.941009 96.536119 13.704335
5.199500e+09 -24.850297 96.036765 14.236867
5.199750e+09 -25.013285 84.774525 13.984311
5.200000e+09 -25.081797 93.468023 13.913451
5.200250e+09 -24.993838 95.843896 14.375107
5.200500e+09 -25.195916 96.259224 13.726885
5.200750e+09 -24.972290 94.456126 14.718337
5.201000e+09 -25.202681 96.081171 14.129664
5.201250e+09 -25.241658 89.935281 14.118993
5.201500e+09 -24.915539 82.736045 14.099247
5.201750e+09 -25.219818 94.330916 14.832738
5.202000e+09 -25.027391 90.992285 14.105399
5.202250e+09 -25.230959 96.118539 14.259286
5.202500e+09 -25.001126 96.055955 14.086506
5.202750e+09 -24.993141 96.063556 14.233182
5.203000e+09 -25.132548 84.200605 13.886496
5.203250e+09 -25.243047 84.460738 14.404187
5.203500e+09 -24.976061 70.970901 14.373598
5.203750e+09 -25.350673 95.660112 14.917995
5.204000e+09 -25.110126 95.992016 13.819847
5.204250e+09 -25.219138 95.478539 14.828300
5.204500e+09 -25.175716 87.178379 13.925647
5.204750e+09 -25.129925 96.028127 13.781326
5.205000e+09 -25.273091 95.386323 15.017605
5.205250e+09 -25.421870 84.145014 15.236369
5.205500e+09 -25.072082 91.075378 14.462838
5.205750e+09 -25.343291 95.977090 14.105029
5.206000e+09 -25.442627 95.560838 14.368174
5.206250e+09 -25.316815 95.281003 14.919561
5.206500e+09 -25.252023 85.409537 15.437223
5.206750e+09 -25.566765 89.350624 12.204111
5.207000e+09 -25.411861 95.754130 12.718150
5.207250e+09 -25.223603 93.837001 13.482159
5.207500e+09 -25.417756 95.675407 14.466019
5.207750e+09 -25.504260 89.072847 14.508257
5.208000e+09 -25.492889 95.569746 14.512263
5.208250e+09 -25.189404 95.286490 15.245685
5.208500e+09 -25.444498 88.808726 14.280387
5.208750e+09 -25.482855 85.082830 14.106715
5.209000e+09 -25.209966 95.517586 13.911443
5.209250e+09 -25.226891 95.264983 14.513385
5.209500e+09 -25.466563 94.518453 14.403279
5.209750e+09 -25.310594 92.797989 15.120743
5.210000e+09 -25.429765 78.072819 15.533703
5.210250e+09 -25.294678 95.424536 14.438483
5.210500e+09 -25.337773 94.649320 14.361433
5.210750e+09 -25.611897 95.129548 14.851915
5.211000e+09 -25.285419 86.278996 14.370040
5.211250e+09 -25.620509 93.342983 14.375195
5.211500e+09 -25.304348 95.229532 14.515700
5.211750e+09 -25.377107 94.205705 14.532008
5.212000e+09 -25.404347 95.333080 14.171943
5.212250e+09 -25.453767 94.821371 15.090419
5.212500e+09 -25.692288 94.903247 15.072463
5.212750e+09 -25.334430 83.749094 15.110661
5.213000e+09 -25.686886 89.784291 15.359520
5.213250e+09 -25.436128 95.272385 14.676952
5.213500e+09 -25.363344 95.009079 14.719653
5.213750e+09 -25.688718 94.990345 14.711554
5.214000e+09 -25.562289 95.288836 14.391030
5.214250e+09 -25.691103 89.909694 14.666242
5.214500e+09 -25.592856 94.310346 14.307900
5.214750e+09 -25.680294 95.169138 14.161794
5.215000e+09 -25.554236 93.231789 14.582848
5.215250e+09 -25.730206 93.530379 15.070542
5.215500e+09 -25.785748 88.949452 15.195038
5.215750e+09 -25.582190 95.125161 14.833803
5.216000e+09 -25.716435 90.639030 14.875924
5.216250e+09 -25.531916 95.011007 14.859576
5.216500e+09 -25.574064 93.107960 14.306144
5.216750e+09 -25.841120 91.229657 14.218140
5.217000e+09 -25.656116 95.032778 14.075321
5.217250e+09 -25.875731 94.605086 14.352719
5.217500e+09 -25.765539 94.997010 14.140657
5.217750e+09 -25.578203 78.929127 14.546056
5.218000e+09 -25.749551 94.862375 14.347484
5.218250e+09 -25.790617 94.864759 14.366116
5.218500e+09 -25.644283 88.698451 15.323832
5.218750e+09 -25.871552 94.678624 14.626161
5.219000e+09 -25.910218 94.581974 14.321727
5.219250e+09 -25.695683 94.826625 15.204126
5.219500e+09 -25.755378 94.239225 15.613785
5.219750e+09 -25.976821 92.145852 14.318778
5.220000e+09 -25.926133 94.117625 15.375840
5.220250e+09 -25.838440 94.713383 14.828502
5.220500e+09 -25.839450 91.921259 14.818768
5.220750e+09 -25.529675 93.864427 15.603623
5.221000e+09 -25.644167 94.176949 15.150902
5.221250e+09 -25.836780 94.747622 14.091508
5.221500e+09 -25.886763 94.573943 14.184843
5.221750e+09 -25.669840 82.232250 14.856565
5.222000e+09 -25.985119 93.977457 14.136742
5.222250e+09 -25.746981 91.838447 15.392247
5.222500e+09 -26.016352 81.246368 14.729006
5.222750e+09 -26.058359 93.892305 14.920588
5.223000e+09 -25.801391 94.080905 15.528735
5.223250e+09 -25.887659 93.986648 15.605915
5.223500e+09 -25.863418 81.805715 15.247228
5.223750e+09 -25.892916 92.077874 14.611648
5.224000e+09 -26.079355 94.337848 14.067397
5.224250e+09 -25.722825 79.579511 15.386990
5.224500e+09 -26.092445 93.759551 15.641520
5.224750e+09 -26.192843 91.292793 15.064565
5.225000e+09 -25.981138 94.351673 14.793258
5.225250e+09 -25.876356 94.266884 14.609722
5.225500e+09 -26.010427 93.814594 14.910059
5.225750e+09 -25.878527 94.198586 14.712858
5.226000e+09 -25.982417 93.654401 15.474962
5.226250e+09 -25.999405 80.152257 15.522568
5.226500e+09 -26.023106 91.393817 15.769048
5.226750e+09 -26.248026 93.853266 14.579245
5.227000e+09 -26.016121 91.648657 15.196660
5.227250e+09 -26.257463 79.747196 15.361251
5.227500e+09 -26.191139 94.050117 14.196731
5.227750e+09 -26.047191 94.101750 14.210997
5.228000e+09 -26.204626 84.323925 15.221569
5.228250e+09 -26.149527 54.496995 14.418885
5.228500e+09 -26.347822 90.359417 14.462540
5.228750e+09 -26.202700 94.057126 14.219693
5.229000e+09 -26.332859 93.360784 14.385779
5.229250e+09 -26.369182 93.555106 14.574364
5.229500e+09 -26.112363 84.092719 15.196605
5.229750e+09 -26.302482 85.159335 14.971337
5.230000e+09 -26.127229 93.849399 14.279719
5.230250e+09 -26.482841 83.122537 14.565825
5.230500e+09 -26.125817 93.760599 14.637735
5.230750e+09 -26.132274 93.351024 14.988978
5.231000e+09 -26.444377 88.313377 14.180092
5.231250e+09 -26.125714 93.442262 14.719658
5.231500e+09 -26.404485 93.059998 15.086289
5.231750e+09 -26.350471 85.349797 14.370838
5.232000e+09 -26.407835 81.231788 14.130115
5.232250e+09 -26.188054 93.059236 14.738464
5.232500e+09 -26.439690 91.114431 15.349352
5.232750e+09 -26.531889 93.315205 14.440712
5.233000e+09 -26.340155 77.167937 14.768055
5.233250e+09 -26.587235 93.209226 14.188049
5.233500e+09 -26.363779 93.567097 13.917319
5.233750e+09 -26.381671 92.938891 14.456064
5.234000e+09 -26.517601 92.902548 14.601427
5.234250e+09 -26.313116 93.305254 14.213720
5.234500e+09 -26.416976 86.916267 14.762937
5.234750e+09 -26.338169 92.050597 14.600367
5.235000e+09 -26.467515 91.540463 13.872031
5.235250e+09 -26.592744 90.280522 13.127952
5.235500e+09 -26.594623 87.765641 13.583323
5.235750e+09 -26.424820 87.300391 13.692470
5.236000e+09 -26.450023 49.796669 13.967116
5.236250e+09 -26.460722 90.132181 14.258220
5.236500e+09 -26.682473 73.291500 14.322903
5.236750e+09 -26.529935 85.272876 14.699005
5.237000e+09 -26.498968 93.069254 13.791052
5.237250e+09 -26.605136 92.583685 13.985440
5.237500e+09 -26.628643 93.138089 13.007486
5.237750e+09 -26.788123 72.204786 12.985888
5.238000e+09 -26.749517 92.395073 13.696081
5.238250e+09 -26.849949 92.432054 13.808958
5.238500e+09 -26.598026 92.889112 13.218123
5.238750e+09 -26.613640 72.399222 12.823260
5.239000e+09 -26.777157 84.670643 12.650752
5.239250e+09 -26.953543 92.515901 12.592633
5.239500e+09 -26.716929 92.724297 12.932303
5.239750e+09 -26.875474 81.233532 12.501394
5.240000e+09 -26.756054 85.541146 13.194447
5.240250e+09 -26.831811 92.698528 12.706318
5.240500e+09 -27.013567 89.466395 12.521006
5.240750e+09 -27.061389 92.251363 13.090858
5.241000e+09 -26.902973 92.620712 12.516305
5.241250e+09 -26.828021 92.197922 12.145412
5.241500e+09 -26.925661 92.662996 11.869224
5.241750e+09 -27.135940 92.135757 11.715463
5.242000e+09 -27.128471 76.218065 11.614623
5.242250e+09 -27.185048 92.029263 11.591552
5.242500e+09 -27.069835 75.980300 12.672005
5.242750e+09 -27.010489 83.283040 11.615949
5.243000e+09 -26.412679 92.222989 12.145125
5.243250e+09 -27.087645 86.857099 11.967324
5.243500e+09 -27.046266 91.746241 12.219662
5.243750e+09 -27.422300 91.839147 11.523640
5.244000e+09 -26.969763 84.976152 11.784398
5.244250e+09 -27.127601 88.487160 11.656265
5.244500e+09 -27.363413 91.805044 11.565673
5.244750e+09 -27.433855 62.670980 11.551387
5.245000e+09 -27.246514 91.662312 10.888287
5.245250e+09 -27.486186 91.293156 11.874940
5.245500e+09 -27.392502 91.887869 11.272424
5.245750e+09 -27.587035 91.134136 10.992787
5.246000e+09 -27.569141 89.426279 11.747944
5.246250e+09 -27.527046 90.965769 10.459834
5.246500e+09 -27.679457 91.467672 10.419177
5.246750e+09 -27.471660 79.357593 10.115756
5.247000e+09 -27.652782 91.625126 10.377268
5.247250e+09 -27.666502 83.224075 11.031624
5.247500e+09 -27.849801 90.807224 11.433836
5.247750e+09 -27.894964 90.903239 10.546649
5.248000e+09 -27.773514 91.204067 10.672781
5.248250e+09 -28.005738 89.174006 10.459875
5.248500e+09 -27.818575 90.635260 10.415840
5.248750e+09 -28.042211 90.528795 10.671597
5.249000e+09 -28.154722 90.588627 10.611416
5.249250e+09 -28.105791 90.998238 9.936414
5.249500e+09 -28.201243 90.380691 10.342997
5.249750e+09 -28.297764 79.683877 10.527299
5.250000e+09 -28.328205 65.848727 10.279229
5.250250e+09 -28.298239 90.011184 10.848968
5.250500e+09 -28.396384 79.956391 10.397033
5.250750e+09 -28.434706 89.908317 11.138558
5.251000e+09 -28.383627 90.267688 9.793989
5.251250e+09 -28.450915 90.431006 9.603567
5.251500e+09 -28.411158 85.735183 10.153862
5.251750e+09 -28.723438 89.526527 11.051040
5.252000e+09 -28.769314 89.660498 11.087452
5.252250e+09 -28.812698 89.934540 10.029481
5.252500e+09 -28.704917 89.934407 9.428785
5.252750e+09 -28.871439 89.863171 9.145982
5.253000e+09 -28.731311 89.573226 9.668221
5.253250e+09 -28.945678 89.833900 9.863174
5.253500e+09 -29.093944 89.574345 10.662002
5.253750e+09 -29.131688 89.178671 11.558011
5.254000e+09 -29.026671 89.056866 10.699480
5.254250e+09 -29.279658 85.535497 10.713784
5.254500e+09 -29.230395 89.437602 10.198784
5.254750e+09 -29.390221 87.024972 10.839318
5.255000e+09 -29.462081 89.278477 10.948374
5.255250e+09 -29.408616 88.584430 12.445294
5.255500e+09 -29.364059 88.695887 12.159077
5.255750e+09 -29.601137 87.298476 10.905693
5.256000e+09 -29.557927 86.333742 11.266855
5.256250e+09 -29.484041 86.317390 11.245032
5.256500e+09 -29.746104 88.425970 12.833179
5.256750e+09 -29.891537 88.311223 13.543545
5.257000e+09 -29.865128 88.492064 12.388621
5.257250e+09 -29.837022 82.327033 12.430061
5.257500e+09 -29.962104 88.009908 13.889639
5.257750e+09 -30.137534 88.504108 11.802320
5.258000e+09 -30.068882 86.713905 14.286290
5.258250e+09 -30.071313 88.114330 13.288703
5.258500e+09 -30.066548 85.264191 12.159533
5.258750e+09 -30.062710 77.554701 14.294724
5.259000e+09 -30.267957 87.969700 13.735016
5.259250e+09 -30.177705 87.714741 14.045134
5.259500e+09 -30.220516 87.547582 14.013603
5.259750e+09 -30.443574 85.783906 14.603851
5.260000e+09 -30.323473 87.331498 15.431172
5.260250e+09 -30.586640 87.441789 14.736769
5.260500e+09 -30.679871 86.359025 16.030821
5.260750e+09 -30.468155 86.037260 16.312365
5.261000e+09 -30.822020 87.419905 16.653179
5.261250e+09 -30.935484 84.232293 16.001200
5.261500e+09 -30.897470 84.501791 15.549855
5.261750e+09 -30.832394 74.878342 15.716157
5.262000e+09 -30.697881 86.903136 16.763551
5.262250e+09 -31.083094 72.459466 18.054430
5.262500e+09 -31.121371 87.126603 17.263517
5.262750e+09 -31.180645 75.405310 17.507030
5.263000e+09 -30.866120 84.467400 18.562088
5.263250e+09 -31.088352 86.484593 20.346390
5.263500e+09 -31.395386 80.938687 18.770267
5.263750e+09 -31.139021 86.264972 19.886850
5.264000e+09 -30.967348 83.154978 19.304585
5.264250e+09 -31.351507 83.381619 20.158616
5.264500e+09 -31.553325 81.444110 19.734101
5.264750e+09 -31.562911 82.671374 20.143910
5.265000e+09 -31.605873 85.991839 20.971061
5.265250e+09 -31.361155 79.401702 21.413692
5.265500e+09 -31.831225 80.874288 20.983622
5.265750e+09 -31.543195 77.137741 19.668781
5.266000e+09 -31.369205 83.167955 22.315321
5.266250e+09 -31.540588 78.336367 22.095606
5.266500e+09 -31.904383 84.442051 21.697535
5.266750e+09 -31.485512 85.583844 23.254568
5.267000e+09 -31.842992 62.511086 23.424333
5.267250e+09 -31.878073 85.887020 23.666749
5.267500e+09 -31.757425 85.711112 23.335269
5.267750e+09 -31.646683 83.096572 22.973696
5.268000e+09 -31.846916 85.531408 23.714506
5.268250e+09 -32.189158 84.535872 24.578402
5.268500e+09 -31.823277 83.699006 24.651313
5.268750e+09 -32.324755 85.111001 26.077017
5.269000e+09 -32.014415 82.707248 25.845661
5.269250e+09 -31.913641 79.745597 26.419613
5.269500e+09 -32.143081 84.993310 25.521176
5.269750e+09 -32.345470 84.899776 26.910047
5.270000e+09 -32.339832 85.284992 27.375159
5.270250e+09 -31.951274 85.073500 27.582732
5.270500e+09 -32.514977 76.215342 27.305116
5.270750e+09 -32.117605 76.970155 28.548309
5.271000e+09 -32.130760 63.236442 29.173102
5.271250e+09 -32.564598 73.598016 28.762356
5.271500e+09 -32.470510 66.389943 29.202405
5.271750e+09 -32.508432 84.534475 28.602065
5.272000e+09 -32.589813 84.804817 28.620520
5.272250e+09 -32.644620 84.782890 29.654353
5.272500e+09 -32.459313 82.274182 29.285661
5.272750e+09 -32.409694 84.430153 31.121587
5.273000e+09 -32.374487 84.287654 31.520459
5.273250e+09 -32.296041 84.434064 31.699674
5.273500e+09 -32.458942 84.358880 32.522534
5.273750e+09 -33.012192 84.204670 32.639565
5.274000e+09 -33.127802 82.690932 32.893560
5.274250e+09 -32.801166 70.087965 32.502538
5.274500e+09 -32.557952 84.140961 32.502049
5.274750e+09 -32.510554 84.025845 32.414892
5.275000e+09 -32.752244 83.974045 34.965010
5.275250e+09 -33.046747 84.316110 34.509532
5.275500e+09 -32.986628 80.531205 33.264940
5.275750e+09 -32.729097 83.859341 33.766569
5.276000e+09 -32.842461 83.676373 36.701849
5.276250e+09 -32.886245 83.687231 36.249001
5.276500e+09 -33.225938 79.172114 37.155715
5.276750e+09 -33.037035 83.542119 38.107508
5.277000e+09 -32.948687 82.410606 40.038355
5.277250e+09 -33.275359 81.545344 38.458022
5.277500e+09 -32.833017 83.526750 36.793525
5.277750e+09 -33.023194 79.349919 37.800954
5.278000e+09 -33.283141 83.428976 38.459500
5.278250e+09 -33.623759 83.446461 37.901861
5.278500e+09 -33.454680 83.428199 39.835197
5.278750e+09 -33.149492 81.261722 39.308937
5.279000e+09 -32.981806 83.302916 39.196593
5.279250e+09 -33.441664 83.014791 42.116864
5.279500e+09 -33.474604 83.296814 41.219560
5.279750e+09 -33.599096 73.510508 40.699384
5.280000e+09 -33.241365 81.972139 41.476792
5.280250e+09 -33.803870 82.773640 42.977426
5.280500e+09 -33.392970 82.695173 42.893471
5.280750e+09 -33.297026 82.873586 43.033897
5.281000e+09 -33.790496 82.268364 45.429897
5.281250e+09 -33.288538 82.835318 45.257976
5.281500e+09 -33.604354 82.933028 44.667266
5.281750e+09 -33.506285 82.514195 47.149597
5.282000e+09 -33.484354 82.073939 47.159911
5.282250e+09 -33.498752 82.717867 47.967715
5.282500e+09 -34.222246 81.044963 47.386468
5.282750e+09 -33.816111 79.684716 46.476237
5.283000e+09 -33.950951 78.950028 47.480646
5.283250e+09 -33.994499 82.281585 49.112209
5.283500e+09 -34.248213 82.210230 49.541016
5.283750e+09 -33.620103 82.415464 47.193713
5.284000e+09 -33.845394 82.459543 48.425437
5.284250e+09 -34.159516 82.112277 50.352656
5.284500e+09 -33.941515 82.293073 50.287542
5.284750e+09 -34.190602 82.265359 49.097974
5.285000e+09 -33.761156 82.208947 50.370652
5.285250e+09 -34.188215 77.519510 52.238955
5.285500e+09 -34.062925 79.655811 51.702728
5.285750e+09 -33.576934 82.013833 51.263282
5.286000e+09 -34.107872 82.164613 51.400420
5.286250e+09 -34.330322 77.899872 51.636686
5.286500e+09 -34.363904 71.524947 53.486852
5.286750e+09 -33.557397 82.079586 54.062457
5.287000e+09 -33.998082 82.111348 54.614686
5.287250e+09 -34.499829 81.714596 54.545073
5.287500e+09 -34.081727 81.684705 56.856744
5.287750e+09 -33.995558 81.377588 58.300794
5.288000e+09 -34.156997 81.364858 58.290900
5.288250e+09 -33.777148 81.806311 57.201599
5.288500e+09 -33.875585 79.764886 57.973374
5.288750e+09 -33.645569 75.225230 58.469405
5.289000e+09 -34.464134 80.656792 58.558129
5.289250e+09 -34.347040 70.108088 56.878654
5.289500e+09 -33.748353 81.637530 57.434698
5.289750e+09 -33.683609 81.827575 59.597152
5.290000e+09 -34.412605 71.588353 58.675718
5.290250e+09 -34.621203 81.393154 60.557513
5.290500e+09 -34.410494 81.925112 58.543750
5.290750e+09 -33.879929 81.562610 59.842164
5.291000e+09 -34.369545 79.784507 61.083241
5.291250e+09 -34.026569 75.742929 62.857562
5.291500e+09 -33.753262 81.145736 63.270763
5.291750e+09 -33.959573 81.418878 64.135839
5.292000e+09 -33.953875 81.485025 63.925167
5.292250e+09 -34.068330 81.482638 65.711402
5.292500e+09 -33.843482 71.583052 63.351541
5.292750e+09 -34.054886 77.518398 67.384474
5.293000e+09 -34.495564 81.091160 67.774602
5.293250e+09 -34.080628 79.810756 65.358674
5.293500e+09 -34.752288 81.036225 66.553739
5.293750e+09 -34.553052 77.712722 64.960127
5.294000e+09 -34.608484 81.207333 65.557952
5.294250e+09 -33.754655 81.061489 67.379474
5.294500e+09 -34.199787 81.182203 67.809098
5.294750e+09 -33.833873 81.023194 69.152096
5.295000e+09 -33.925263 81.195409 68.854654
5.295250e+09 -34.535853 72.754793 66.436673
5.295500e+09 -34.618730 81.082416 69.473858
5.295750e+09 -33.735088 70.136326 69.465905
5.296000e+09 -34.394075 81.305957 68.833819
5.296250e+09 -34.318091 78.577877 72.144684
5.296500e+09 -34.210988 81.231153 69.807711
5.296750e+09 -34.018994 80.942314 71.602228
5.297000e+09 -33.728910 80.856361 71.089589
5.297250e+09 -33.795082 76.389776 71.298909
5.297500e+09 -33.836729 81.090909 73.418718
5.297750e+09 -33.721082 68.150791 74.242518
5.298000e+09 -34.151877 80.877962 74.170938
5.298250e+09 -34.629499 80.577520 73.334302
5.298500e+09 -34.755014 80.672091 74.497496
5.298750e+09 -34.376433 80.729811 74.291092
5.299000e+09 -34.212998 80.516534 78.139357
5.299250e+09 -33.956818 80.870711 78.463418
5.299500e+09 -34.542664 80.746642 76.999709
5.299750e+09 -34.005171 80.760807 77.114054
5.300000e+09 -33.993026 71.382298 76.351445
5.300250e+09 -34.133191 79.448139 75.256193
5.300500e+09 -34.103486 77.071160 76.338905
5.300750e+09 -33.521553 80.697200 77.446399
5.301000e+09 -34.439266 80.609954 77.784902
5.301250e+09 -33.738739 81.001492 78.540525
5.301500e+09 -33.637653 80.871265 79.107855
5.301750e+09 -33.875532 80.903637 79.684954
5.302000e+09 -34.295844 80.656360 78.763863
5.302250e+09 -34.543759 74.258220 80.758818
5.302500e+09 -34.158117 69.902450 79.786542
5.302750e+09 -34.325178 76.607614 79.717271
5.303000e+09 -33.601654 80.503766 81.918709
5.303250e+09 -33.629423 77.937290 81.625753
5.303500e+09 -34.189257 65.648164 80.424032
5.303750e+09 -34.515823 80.301817 81.718494
5.304000e+09 -34.345233 78.381876 81.857094
5.304250e+09 -33.907291 80.595483 85.035465
5.304500e+09 -33.688103 80.343319 85.301718
5.304750e+09 -33.774930 80.452957 84.403821
5.305000e+09 -34.591741 80.286863 86.682528
5.305250e+09 -34.142623 80.464258 87.464042
5.305500e+09 -34.489631 80.239757 85.441632
5.305750e+09 -33.738410 79.147900 87.209812
5.306000e+09 -34.175566 80.306914 85.533196
5.306250e+09 -33.740068 80.395760 86.124355
5.306500e+09 -34.101647 78.654534 89.578122
5.306750e+09 -34.270032 80.100904 90.695749
5.307000e+09 -33.550640 80.470160 90.893301
5.307250e+09 -34.464831 80.072371 92.449416
5.307500e+09 -33.603963 70.349125 92.102012
5.307750e+09 -33.805543 80.426221 91.584724
5.308000e+09 -34.477431 79.517504 93.425578
5.308250e+09 -33.577266 79.943519 92.223051
5.308500e+09 -33.693926 80.392485 93.131678
5.308750e+09 -33.765354 80.293460 94.841958
5.309000e+09 -33.573382 80.448318 95.340950
5.309250e+09 -34.196822 80.318375 94.716372
5.309500e+09 -33.583628 78.500818 95.254965
5.309750e+09 -33.477322 64.536549 94.713635
5.310000e+09 -33.176060 80.526649 94.537593
5.310250e+09 -34.167628 80.442821 94.173741
5.310500e+09 -34.314279 80.124927 95.992141
5.310750e+09 -33.499328 80.580758 97.529387
5.311000e+09 -33.463548 80.637602 97.440044
5.311250e+09 -33.783321 80.505157 100.370351
5.311500e+09 -33.776794 80.405665 102.370099
5.311750e+09 -33.267605 74.194090 101.172463
5.312000e+09 -33.276265 75.664215 100.417366
5.312250e+09 -33.359494 80.310151 101.877665
5.312500e+09 -33.363636 80.637002 103.914755
5.312750e+09 -33.774541 80.039509 104.376240
5.313000e+09 -33.219293 80.633274 105.342684
5.313250e+09 -33.082574 69.830307 103.814485
5.313500e+09 -33.443661 71.316381 105.595133
5.313750e+09 -32.720406 80.795859 105.572757
5.314000e+09 -33.164642 80.710358 105.108466
5.314250e+09 -32.969156 80.844289 107.269390
5.314500e+09 -32.867244 80.476912 107.044967
5.314750e+09 -33.164774 78.056117 105.707017
5.315000e+09 -32.670281 68.890803 107.206575
5.315250e+09 -32.515287 81.078535 107.969062
5.315500e+09 -32.675754 81.222681 109.579594
5.315750e+09 -32.668301 80.939906 109.098783
5.316000e+09 -32.281896 75.460034 110.080478
5.316250e+09 -32.674656 81.059550 108.192281
5.316500e+09 -32.614392 76.294936 107.614526
5.316750e+09 -32.360028 81.089839 109.584224
5.317000e+09 -32.079113 81.238125 109.087963
5.317250e+09 -31.960421 81.148972 110.224858
5.317500e+09 -31.835978 81.269912 110.287523
5.317750e+09 -32.515714 78.087555 110.064386
5.318000e+09 -32.612348 77.936542 109.989910
5.318250e+09 -31.866546 81.400020 111.780218
5.318500e+09 -32.084395 78.834105 110.913588
5.318750e+09 -31.642264 69.483087 111.629510
5.319000e+09 -31.728137 81.797146 111.700048
5.319250e+09 -31.851155 76.173802 112.080687
5.319500e+09 -31.462198 79.196686 112.835352
5.319750e+09 -31.415173 81.703509 113.380873
5.320000e+09 -31.499697 79.089942 114.467015
5.320250e+09 -31.077498 81.896085 114.993329
5.320500e+09 -31.130339 81.938544 114.078966
5.320750e+09 -31.425139 70.874598 111.843827
5.321000e+09 -30.997266 82.154022 113.834309
5.321250e+09 -31.594171 80.594982 114.862980
5.321500e+09 -31.436115 78.014550 116.207125
5.321750e+09 -30.935529 79.241212 115.636067
5.322000e+09 -30.546814 66.536382 114.768709
5.322250e+09 -30.625303 82.387123 115.268290
5.322500e+09 -30.611814 73.072356 116.131422
5.322750e+09 -31.375386 68.488587 116.249679
5.323000e+09 -30.752432 82.356551 113.582994
5.323250e+09 -30.618115 77.864709 115.315237
5.323500e+09 -30.313922 82.432657 116.061528
5.323750e+09 -30.369462 82.535741 116.340802
5.324000e+09 -31.116600 81.743012 115.900041
5.324250e+09 -30.307397 80.552247 115.614960
5.324500e+09 -30.244581 82.693836 115.870062
5.324750e+09 -30.977617 82.396806 116.971577
5.325000e+09 -30.795328 82.655977 115.146691
5.325250e+09 -30.917239 76.008951 114.394380
5.325500e+09 -30.946905 82.245121 116.083279
5.325750e+09 -30.142024 82.617415 115.013431
5.326000e+09 -30.072527 82.537570 116.774294
5.326250e+09 -29.906059 77.302084 115.853368
5.326500e+09 -30.545270 78.431369 118.985906
5.326750e+09 -30.628173 82.504664 117.467148
5.327000e+09 -30.483159 82.767621 118.286671
5.327250e+09 -30.573751 82.556829 118.217300
5.327500e+09 -29.870509 72.659474 117.061619
5.327750e+09 -29.833301 78.627376 117.707330
5.328000e+09 -29.847699 71.629581 116.135811
5.328250e+09 -29.683092 82.883466 117.299667
5.328500e+09 -29.540928 81.661740 118.522101
5.328750e+09 -29.298448 83.196500 116.005818
5.329000e+09 -30.312729 82.839667 116.015323
5.329250e+09 -30.370119 77.419158 115.987876
5.329500e+09 -29.488439 83.181912 118.457519
5.329750e+09 -29.361736 83.041915 117.751839
5.330000e+09 -30.158897 82.777571 117.878500
5.330250e+09 -29.905482 80.417678 119.651689
5.330500e+09 -29.378643 82.979923 119.195849
5.330750e+09 -30.095499 80.327281 116.464550
5.331000e+09 -29.457386 83.123209 116.247227
5.331250e+09 -29.700208 83.042429 118.785244
5.331500e+09 -29.047593 74.753445 119.055656
5.331750e+09 -29.621125 75.535250 120.872038
5.332000e+09 -29.010731 79.360552 119.568239
5.332250e+09 -29.619469 83.208254 120.018442
5.332500e+09 -29.175645 81.802251 119.455002
5.332750e+09 -28.942036 83.361949 118.754926
5.333000e+09 -28.762730 83.285389 117.939496
5.333250e+09 -29.096803 83.321406 116.404102
5.333500e+09 -29.888881 82.963558 117.805832
5.333750e+09 -28.629871 53.326095 117.609356
5.334000e+09 -29.089641 83.513806 119.884550
5.334250e+09 -28.748960 83.432602 117.977028
5.334500e+09 -29.048199 83.479011 116.624420
5.334750e+09 -29.716467 83.031951 118.726199
5.335000e+09 -29.432715 83.347243 120.544303
5.335250e+09 -28.619288 71.812227 119.731373
5.335500e+09 -29.337221 83.342457 117.498259
5.335750e+09 -28.726045 81.467426 117.671174
5.336000e+09 -28.550671 66.057119 119.845468
5.336250e+09 -28.652872 83.443952 120.427405
5.336500e+09 -28.482241 83.316249 119.513089
5.336750e+09 -28.513184 68.096469 119.634690
5.337000e+09 -28.639224 83.575031 118.420493
5.337250e+09 -29.188967 83.425733 117.155201
5.337500e+09 -28.796728 80.797392 117.140023
5.337750e+09 -29.154651 83.341533 118.914751
5.338000e+09 -28.919175 83.686863 120.595514
5.338250e+09 -28.270221 78.435557 120.086080
5.338500e+09 -29.159582 79.508910 120.113325
5.338750e+09 -28.736048 83.491317 120.763372
5.339000e+09 -28.276624 82.200717 119.992988
5.339250e+09 -29.061996 80.940754 119.759647
5.339500e+09 -28.294277 83.647016 119.654566
5.339750e+09 -28.463480 83.757675 119.866271
5.340000e+09 -28.628186 83.728054 120.929461
5.340250e+09 -29.113222 83.237985 119.480413
5.340500e+09 -29.013847 83.264303 117.295205
5.340750e+09 -28.436945 80.734381 117.085191
5.341000e+09 -28.430937 83.670217 117.395870
5.341250e+09 -29.006947 83.263962 119.592772
5.341500e+09 -28.751852 83.675680 121.031075
5.341750e+09 -28.343262 83.861573 120.602083
5.342000e+09 -28.192759 79.372115 121.124354
5.342250e+09 -28.055958 83.622208 121.627771
5.342500e+09 -27.951967 83.648932 120.575839
5.342750e+09 -28.108518 83.486670 120.289180
5.343000e+09 -28.216755 83.712701 118.286575
5.343250e+09 -28.244926 83.616791 119.844988
5.343500e+09 -27.832924 83.812400 120.166894
5.343750e+09 -28.071269 83.761914 119.780185
5.344000e+09 -28.526770 74.798604 121.364973
5.344250e+09 -28.748709 83.359948 118.535422
5.344500e+09 -28.407052 83.693312 121.441916
5.344750e+09 -28.429009 83.700973 122.017512
5.345000e+09 -28.181654 72.619438 121.571836
5.345250e+09 -28.822067 83.504908 121.447646
5.345500e+09 -28.593928 72.260433 118.149750
5.345750e+09 -28.007028 83.565388 120.412968
5.346000e+09 -28.457865 80.233274 118.015408
5.346250e+09 -28.170395 78.796021 117.921429
5.346500e+09 -27.996309 83.606978 121.108134
5.346750e+09 -27.745297 83.597877 120.577228
5.347000e+09 -28.651153 83.455054 119.993458
5.347250e+09 -28.495970 81.318411 121.460252
5.347500e+09 -28.664809 82.786711 119.159817
5.347750e+09 -28.551771 83.582343 118.528970
5.348000e+09 -28.191646 83.792020 120.527707
5.348250e+09 -27.967381 83.622584 122.025782
5.348500e+09 -27.787404 83.757877 120.222468
5.348750e+09 -28.166694 83.731726 118.765140
5.349000e+09 -27.713606 83.477714 119.658060
5.349250e+09 -28.438973 75.872179 120.729191
5.349500e+09 -28.606254 72.567457 118.557978
5.349750e+09 -28.119072 78.532113 120.504141
5.350000e+09 -28.844810 83.358862 121.404424
5.350250e+09 -28.674714 83.377676 119.591688
5.350500e+09 -28.398027 83.649626 121.412033
5.350750e+09 -28.662804 83.460294 122.091898
5.351000e+09 -28.077529 78.967604 121.336629
5.351250e+09 -28.619882 82.417635 120.996701
5.351500e+09 -27.941467 83.605456 120.732077
5.351750e+09 -28.301595 77.523965 121.693843
5.352000e+09 -28.738395 78.422218 119.891599
5.352250e+09 -28.890807 83.189999 120.295273
5.352500e+09 -28.187662 81.558580 121.298921
5.352750e+09 -28.789760 80.130916 121.271705
5.353000e+09 -27.969459 83.631566 121.441972
5.353250e+09 -27.806276 83.679384 120.475329
5.353500e+09 -27.804744 76.395747 121.238059
5.353750e+09 -28.591671 66.445113 120.112291
5.354000e+09 -28.030413 83.691124 121.130608
5.354250e+09 -28.345951 81.532133 119.483057
5.354500e+09 -27.815391 83.369406 120.986688
5.354750e+09 -28.416079 82.176148 121.239595
5.355000e+09 -28.300387 73.161929 122.756948
5.355250e+09 -28.004722 83.472207 120.677546
5.355500e+09 -28.366799 72.912034 122.456112
5.355750e+09 -28.271842 83.486156 120.299764
5.356000e+09 -28.536254 83.140648 119.395879
5.356250e+09 -28.132582 83.299317 118.773961
5.356500e+09 -28.733815 72.132323 121.443703
5.356750e+09 -28.470707 83.398622 122.347655
5.357000e+09 -28.850328 82.974717 120.941092
5.357250e+09 -28.055428 83.508565 121.013838
5.357500e+09 -28.630513 83.283082 120.749485
5.357750e+09 -28.153213 83.370814 121.644997
5.358000e+09 -28.146863 83.279109 122.652719
5.358250e+09 -28.401767 83.066365 120.834256
5.358500e+09 -28.778393 78.022147 120.113513
5.358750e+09 -28.002746 83.211100 121.914979
5.359000e+09 -28.183132 83.358261 122.450253
5.359250e+09 -28.173000 66.372761 120.524514
5.359500e+09 -27.953464 82.504134 121.620057
5.359750e+09 -27.841296 83.366364 121.375150
5.360000e+09 -28.336701 83.257241 122.253719
5.360250e+09 -28.442652 83.135587 120.205433
5.360500e+09 -27.984270 83.277707 121.048412
5.360750e+09 -27.923085 76.972235 121.156229
5.361000e+09 -28.829709 82.904675 121.976598
5.361250e+09 -28.174036 83.180813 124.229076
5.361500e+09 -28.730817 80.770241 122.282420
5.361750e+09 -27.829669 69.046376 122.318257
5.362000e+09 -28.780262 83.012295 123.095187
5.362250e+09 -28.334084 79.632224 122.622105
5.362500e+09 -27.891970 82.470482 123.513143
5.362750e+09 -28.945843 82.743689 121.975601
5.363000e+09 -28.135636 83.101803 122.649536
5.363250e+09 -28.072885 83.103916 122.842271
5.363500e+09 -28.305342 82.620384 121.630329
5.363750e+09 -27.969542 81.313693 122.737504
5.364000e+09 -28.950003 82.756341 121.866798
5.364250e+09 -28.221030 78.623144 123.160446
5.364500e+09 -28.286849 83.231802 122.238701
5.364750e+09 -27.971141 79.495146 123.466271
5.365000e+09 -28.506863 78.179417 123.370785
5.365250e+09 -28.032572 79.776033 123.270623
5.365500e+09 -28.498703 83.124481 123.081494
5.365750e+09 -27.741345 82.923542 121.485107
5.366000e+09 -28.928796 82.845271 124.022657
5.366250e+09 -29.100534 82.476572 121.777257
5.366500e+09 -28.776383 82.756646 120.205076
5.366750e+09 -28.804357 81.764877 123.277270
5.367000e+09 -29.038218 63.056184 124.411358
5.367250e+09 -29.356620 82.288131 123.447146
5.367500e+09 -29.060390 76.778303 123.918925
5.367750e+09 -28.474878 82.690718 122.146539
5.368000e+09 -28.391860 82.469722 126.404479
5.368250e+09 -29.354494 82.524521 124.431713
5.368500e+09 -28.810903 80.653394 123.646231
5.368750e+09 -28.315873 82.515747 123.946624
5.369000e+09 -29.144528 80.729431 124.050663
5.369250e+09 -28.576946 79.951954 124.413275
5.369500e+09 -28.330019 82.855553 122.459463
5.369750e+09 -28.942010 82.416201 123.637757
5.370000e+09 -28.302896 82.773429 124.396566
5.370250e+09 -29.435707 82.176161 123.445937
5.370500e+09 -28.856037 82.256462 124.317629
5.370750e+09 -28.951716 82.684957 124.150337
5.371000e+09 -29.151033 82.291250 122.264520
5.371250e+09 -29.151698 76.365656 120.802957
5.371500e+09 -28.643649 82.462997 122.496368
5.371750e+09 -29.755019 81.997060 123.285333
5.372000e+09 -28.902876 71.649007 122.003780
5.372250e+09 -29.286113 76.694785 125.170530
5.372500e+09 -29.051097 82.163509 124.528052
5.372750e+09 -29.154110 68.678745 125.540061
5.373000e+09 -28.895607 82.131772 124.214150
5.373250e+09 -29.094280 82.157155 121.716603
5.373500e+09 -28.793211 62.839272 123.781379
5.373750e+09 -29.260979 82.144842 124.150009
5.374000e+09 -29.551538 81.988733 122.554027
5.374250e+09 -29.493982 81.869052 121.776988
5.374500e+09 -29.423634 81.967316 124.119714
5.374750e+09 -29.903424 79.619491 124.893824
5.375000e+09 -29.089993 71.062280 124.149993
5.375250e+09 -29.624314 79.656489 125.207076
5.375500e+09 -29.647055 80.120117 125.185510
5.375750e+09 -29.433772 81.816521 126.383873
5.376000e+09 -29.422491 78.357972 125.241898
5.376250e+09 -29.824629 81.738953 123.980337
5.376500e+09 -29.591643 81.569358 122.264571
5.376750e+09 -29.265508 81.772489 125.424497
5.377000e+09 -30.261021 81.621418 126.311487
5.377250e+09 -29.842667 76.592118 125.780731
5.377500e+09 -29.377389 73.492660 125.575202
5.377750e+09 -29.798098 81.835288 124.848693
5.378000e+09 -29.805452 81.467455 127.450448
5.378250e+09 -30.045955 81.607176 124.824080
5.378500e+09 -29.515560 81.701492 125.724785
5.378750e+09 -30.031188 81.582406 125.158623
5.379000e+09 -30.466845 75.741190 124.875738
5.379250e+09 -29.914819 81.353470 124.718974
5.379500e+09 -29.511932 64.688142 126.541273
5.379750e+09 -30.117507 79.689872 123.890128
5.380000e+09 -30.237738 81.485695 125.464379
5.380250e+09 -29.981906 70.565156 124.328314
5.380500e+09 -30.326251 81.295332 122.930219
5.380750e+09 -30.209121 74.332523 126.257051
5.381000e+09 -30.362759 70.258219 125.784116
5.381250e+09 -30.252641 81.134676 128.101711
5.381500e+09 -30.495681 81.506532 127.839748
5.381750e+09 -30.606559 81.170801 124.242274
5.382000e+09 -30.183563 81.150564 125.477510
5.382250e+09 -30.085759 81.410456 125.337094
5.382500e+09 -30.672456 74.026051 124.701485
5.382750e+09 -30.696004 80.792466 127.657805
5.383000e+09 -31.122420 81.028524 127.512267
5.383250e+09 -30.937142 75.808044 126.470406
5.383500e+09 -30.787338 75.112629 126.141208
5.383750e+09 -31.476548 80.311410 126.970383
5.384000e+09 -31.035027 80.636040 128.144757
5.384250e+09 -31.235172 80.590254 128.172085
5.384500e+09 -31.537380 71.604418 126.547173
5.384750e+09 -31.698558 80.606674 127.384170
5.385000e+09 -30.854710 80.362226 127.329999
5.385250e+09 -31.353663 70.963659 127.569681
5.385500e+09 -31.319675 78.706891 126.450619
5.385750e+09 -31.305394 79.729376 127.563346
5.386000e+09 -30.972403 77.692564 125.498756
5.386250e+09 -31.139754 77.533674 124.636560
5.386500e+09 -31.298117 67.760596 125.520190
5.386750e+09 -31.940229 80.040875 126.700828
5.387000e+09 -31.778158 77.819561 126.688840
5.387250e+09 -31.195193 78.860223 127.079924
5.387500e+09 -32.047729 79.860690 126.863928
5.387750e+09 -32.310148 79.571632 125.599936
5.388000e+09 -32.148840 77.820072 126.803207
5.388250e+09 -32.286375 79.275369 127.585359
5.388500e+09 -31.895503 79.390468 127.421817
5.388750e+09 -31.526238 79.889136 126.730725
5.389000e+09 -32.741496 77.554931 126.990069
5.389250e+09 -32.528114 78.767971 125.525556
5.389500e+09 -33.154369 78.821896 125.456264
5.389750e+09 -32.925421 70.467479 127.979669
5.390000e+09 -33.117680 76.762291 126.376022
5.390250e+09 -33.169571 79.050652 127.461065
5.390500e+09 -33.420756 74.713389 128.020785
5.390750e+09 -33.489020 70.710306 124.407705
5.391000e+09 -33.458445 78.280316 126.546201
5.391250e+09 -33.307125 78.674683 124.378698
5.391500e+09 -32.738536 79.009623 124.932036
5.391750e+09 -33.609843 78.838340 125.750839
5.392000e+09 -32.901873 78.551360 126.276333
5.392250e+09 -33.382148 77.679408 128.067670
5.392500e+09 -34.010250 67.489211 126.156338
5.392750e+09 -33.892874 76.806619 127.304387
5.393000e+09 -33.974993 78.125162 126.051589
5.393250e+09 -33.764821 78.157213 128.066020
5.393500e+09 -34.601225 77.473316 126.338250
5.393750e+09 -34.349889 77.529084 128.603650
5.394000e+09 -35.215246 76.742835 125.958782
5.394250e+09 -34.209677 77.486483 127.345270
5.394500e+09 -34.686116 68.967240 129.293738
5.394750e+09 -35.159455 76.514503 123.207096
5.395000e+09 -35.874028 76.340962 125.245740
5.395250e+09 -35.328989 72.742952 122.783035
5.395500e+09 -35.800901 76.432788 121.847609
5.395750e+09 -35.626249 76.937224 125.524634
5.396000e+09 -35.699800 76.566651 125.252515
5.396250e+09 -36.011688 76.199912 126.828708
5.396500e+09 -36.673224 75.246449 125.475747
5.396750e+09 -36.014185 75.936881 128.255163
5.397000e+09 -36.302287 75.297494 120.652647
5.397250e+09 -37.191300 71.883670 124.209868
5.397500e+09 -37.291461 66.836282 123.731445
5.397750e+09 -37.484970 75.031974 120.852816
5.398000e+09 -37.611817 74.883008 120.299856
5.398250e+09 -38.414600 73.320819 120.581211
5.398500e+09 -38.112711 71.686992 118.306347
5.398750e+09 -37.283931 73.958506 123.289301
5.399000e+09 -38.115170 60.093846 125.647871
5.399250e+09 -38.226502 73.550136 120.312888
5.399500e+09 -38.973463 69.922287 126.570147
5.399750e+09 -38.562719 73.013047 124.430553
5.400000e+09 -40.823407 58.563271 123.402543
5.400250e+09 -39.966961 64.292434 115.881625
5.400500e+09 -40.891442 71.873005 118.416228
5.400750e+09 -41.858428 61.980898 119.082218
5.401000e+09 -42.106438 67.009872 118.944343
5.401250e+09 -41.413164 59.886875 122.369261
5.401500e+09 -42.935925 69.493487 123.850423
5.401750e+09 -44.171977 68.978870 117.175499
5.402000e+09 -44.062079 68.790883 118.926459
5.402250e+09 -44.337327 69.105385 114.484265
5.402500e+09 -45.270430 67.761500 108.105236
5.402750e+09 -46.170170 59.677074 110.101142
5.403000e+09 -46.131322 67.989684 114.005170
5.403250e+09 -49.124673 62.829296 108.249919
5.403500e+09 -47.515058 63.581835 96.631945
5.403750e+09 -48.456542 60.165024 90.119979
5.404000e+09 -51.547195 63.037580 78.680506
5.404250e+09 -54.236699 59.766846 71.070393
5.404500e+09 -50.888996 56.837491 68.180268
5.404750e+09 -52.102970 55.128738 54.878422
5.405000e+09 -53.678672 41.093834 68.801736
5.405250e+09 -51.733013 58.171460 25.853114
5.405500e+09 -50.807447 60.954806 14.387742
5.405750e+09 -49.921573 60.855641 1.620917
5.406000e+09 -51.070880 60.627636 -3.735253
5.406250e+09 -48.044908 58.617279 -22.600995
5.406500e+09 -46.696795 66.727326 -15.566433
5.406750e+09 -46.359244 60.406907 -33.149870
5.407000e+09 -45.434061 65.804341 -27.530733
5.407250e+09 -43.967032 69.107915 -24.506424
5.407500e+09 -44.844362 58.129527 -32.978426
5.407750e+09 -43.823205 61.458826 -24.169674
5.408000e+09 -43.381022 69.580378 -30.755321
5.408250e+09 -41.210906 61.360569 -35.044843
5.408500e+09 -40.728579 72.274904 -38.270989
5.408750e+09 -39.402438 70.506846 -35.884445
5.409000e+09 -38.963044 74.197071 -34.429282
5.409250e+09 -38.732821 74.477390 -36.099362
5.409500e+09 -38.776233 51.984117 -33.989302
5.409750e+09 -38.158920 73.659264 -34.321275
5.410000e+09 -37.453310 76.464542 -35.382075
5.410250e+09 -36.592422 77.504697 -36.848739
5.410500e+09 -35.923551 67.051278 -42.134777
5.410750e+09 -35.408291 78.016001 -42.163694
5.411000e+09 -35.422160 78.283103 -39.525884
5.411250e+09 -34.641959 79.126433 -39.732462
5.411500e+09 -33.881383 67.788233 -41.300815
5.411750e+09 -33.570480 60.927648 -40.459536
5.412000e+09 -33.742570 76.946902 -43.435543
5.412250e+09 -32.986663 75.626421 -40.107860
5.412500e+09 -32.656769 75.573723 -43.900283
5.412750e+09 -32.539476 81.703675 -42.188740
5.413000e+09 -31.554124 81.406387 -41.694265
5.413250e+09 -30.950872 73.378780 -43.517906
5.413500e+09 -30.500646 82.901873 -45.236246
5.413750e+09 -30.856632 78.122892 -45.421115
5.414000e+09 -29.412778 84.985941 -45.367399
5.414250e+09 -29.833404 84.319284 -45.478406
5.414500e+09 -29.119668 76.146921 -45.294062
5.414750e+09 -28.768063 84.979179 -46.045141
5.415000e+09 -28.326245 81.453422 -45.408614
5.415250e+09 -27.988598 85.868104 -45.790002
5.415500e+09 -27.632608 85.649875 -46.975163
5.415750e+09 -27.244341 86.406149 -45.716619
5.416000e+09 -27.404984 84.635568 -45.198398
5.416250e+09 -26.794353 74.828923 -46.009371
5.416500e+09 -26.232019 88.103117 -45.208053
5.416750e+09 -26.713487 88.010392 -45.924143
5.417000e+09 -25.535034 84.139326 -46.624173
5.417250e+09 -26.044822 80.327633 -46.755102
5.417500e+09 -25.454973 81.787805 -48.903156
5.417750e+09 -25.022213 89.771509 -45.820118
5.418000e+09 -24.803616 88.925641 -48.245219
5.418250e+09 -23.780749 79.975550 -48.381110
5.418500e+09 -23.471024 81.174541 -49.047721
5.418750e+09 -24.041676 90.954451 -49.480849
5.419000e+09 -23.203509 91.749621 -47.778824
5.419250e+09 -22.411308 89.201792 -48.756220
5.419500e+09 -22.082399 92.504083 -48.509330
5.419750e+09 -22.502918 80.025667 -49.329925
5.420000e+09 -22.252175 88.876658 -47.845954
5.420250e+09 -21.051630 90.590238 -49.792054
5.420500e+09 -20.837296 93.876913 -51.002650
5.420750e+09 -20.772571 72.617947 -51.112705
5.421000e+09 -20.689715 94.515009 -51.288425
5.421250e+09 -20.546521 94.815311 -51.845699
5.421500e+09 -19.441537 95.850370 -50.038716
5.421750e+09 -18.971385 96.305369 -50.722244
5.422000e+09 -19.486290 96.211055 -51.524582
5.422250e+09 -18.058585 97.173167 -51.738958
5.422500e+09 -18.129321 97.567993 -50.258265
5.422750e+09 -17.312321 95.703735 -53.633215
5.423000e+09 -17.546198 97.970213 -56.381488
5.423250e+09 -16.836807 98.962033 -54.342816
5.423500e+09 -16.032557 83.598470 -53.097045
5.423750e+09 -15.499674 90.022077 -55.818905
5.424000e+09 -15.991610 100.051984 -57.124593
5.424250e+09 -14.636638 100.978074 -57.215764
5.424500e+09 -14.606052 89.262525 -55.557014
5.424750e+09 -14.534816 98.112331 -55.861016
5.425000e+09 -13.338589 79.333583 -57.388196
5.425250e+09 -13.669098 90.985070 -58.650174
5.425500e+09 -12.159856 104.096039 -59.634060
5.425750e+09 -11.636510 104.560996 -61.143999
5.426000e+09 -11.554099 105.055484 -61.257649
5.426250e+09 -11.235979 105.655275 -63.444332
5.426500e+09 -9.704572 101.860361 -64.683170
5.426750e+09 -9.083878 107.573466 -65.847230
5.427000e+09 -8.380083 108.142749 -69.356491
5.427250e+09 -7.883939 108.840357 -72.165483
5.427500e+09 -7.859140 104.295677 -75.150456
5.427750e+09 -6.753335 110.135879 -79.181690
5.428000e+09 -5.259625 111.210678 -79.882595
5.428250e+09 -5.276654 111.319797 -85.919971
5.428500e+09 -3.189447 112.296432 -90.924238
5.428750e+09 -2.226829 112.590179 -97.945799
5.429000e+09 -1.901982 95.576937 -103.569193
5.429250e+09 -1.619348 112.157609 -112.981377
5.429500e+09 -1.084169 109.793194 -123.309544
5.429750e+09 -0.965554 111.347522 -132.953731
5.430000e+09 -1.371199 110.716476 -143.431825
5.430250e+09 -1.761745 110.135615 -153.940961
5.430500e+09 -2.327178 109.975111 -166.987605
5.430750e+09 -2.937749 106.924572 -173.635542
5.431000e+09 -3.395361 109.282499 -179.539521
5.431250e+09 -4.325964 105.145016 176.136664
5.431500e+09 -5.044623 107.477703 171.834789
5.431750e+09 -5.631316 105.617394 168.357350
5.432000e+09 -6.524468 98.106030 165.092931
5.432250e+09 -7.068065 104.608166 163.551298
5.432500e+09 -7.738488 105.909711 160.708134
5.432750e+09 -8.169355 106.046562 159.431561
5.433000e+09 -8.712405 105.135364 156.645251
5.433250e+09 -9.086310 104.777738 154.466646
5.433500e+09 -9.851678 104.580894 154.022823
5.433750e+09 -10.277116 98.975091 153.052692
5.434000e+09 -10.780590 98.538358 151.189136
5.434250e+09 -11.058283 98.170474 149.370109
5.434500e+09 -11.037556 101.021356 149.264811
5.434750e+09 -11.758170 101.193409 150.290066
5.435000e+09 -11.606796 103.210667 148.487020
5.435250e+09 -12.681865 102.597769 147.986348
5.435500e+09 -13.114970 95.052920 147.385805
5.435750e+09 -12.847704 102.603258 146.951277
5.436000e+09 -13.521980 102.111012 146.108843
5.436250e+09 -13.372813 102.214095 146.720702
5.436500e+09 -14.015039 101.343276 146.735123
5.436750e+09 -13.897892 71.865240 145.141739
5.437000e+09 -14.376849 101.618872 145.856673
5.437250e+09 -14.915019 100.737288 142.979981
5.437500e+09 -14.479837 98.058017 143.576828
5.437750e+09 -15.423501 100.386148 140.838015
5.438000e+09 -15.763305 100.314008 140.557907
5.438250e+09 -15.095071 100.822601 142.203027
5.438500e+09 -15.266749 100.543110 141.293076
5.438750e+09 -15.562042 100.261616 140.400803
5.439000e+09 -16.002184 100.391388 141.960595
5.439250e+09 -16.151825 91.411984 142.138928
5.439500e+09 -16.130756 92.709668 141.211645
5.439750e+09 -16.849313 99.768854 140.373888
5.440000e+09 -16.555163 99.763618 139.514088
5.440250e+09 -16.728948 99.438844 138.178506
5.440500e+09 -17.164372 99.091647 137.036524
5.440750e+09 -17.358059 88.522852 136.118201
5.441000e+09 -17.851188 94.202729 138.841294
5.441250e+09 -17.911181 98.789715 139.778144
5.441500e+09 -18.307669 98.657788 138.683884
5.441750e+09 -18.325241 98.330300 136.666416
5.442000e+09 -18.234298 90.459516 134.552812
5.442250e+09 -18.331702 98.214109 133.820739
5.442500e+09 -18.667014 83.651227 133.711422
5.442750e+09 -18.997589 91.311044 133.937260
5.443000e+09 -19.319220 97.823691 134.043459
5.443250e+09 -19.033815 97.846847 136.495445
5.443500e+09 -19.247541 97.642718 134.354923
5.443750e+09 -18.749662 83.369127 133.964615
5.444000e+09 -19.794974 90.928997 134.591039
5.444250e+09 -19.065967 97.965699 134.759279
5.444500e+09 -19.524793 97.884532 135.700466
5.444750e+09 -19.427626 97.881921 136.092344
5.445000e+09 -19.489081 97.613036 134.841310
5.445250e+09 -19.655670 87.889890 134.949263
5.445500e+09 -19.763903 94.890717 134.128120
5.445750e+09 -20.806714 96.839760 132.995587
5.446000e+09 -20.955262 96.784342 132.432885
5.446250e+09 -20.135086 97.050533 131.000015
5.446500e+09 -21.080251 96.585935 131.708591
5.446750e+09 -20.350222 96.872143 130.451731
5.447000e+09 -21.422536 91.819813 130.561736
5.447250e+09 -21.204406 96.288793 129.250417
5.447500e+09 -21.663752 96.385792 130.839051
5.447750e+09 -21.823899 96.111607 130.579016
5.448000e+09 -21.334681 96.500716 131.896409
5.448250e+09 -21.184139 96.452189 130.946753
5.448500e+09 -21.924782 93.526364 129.836852
5.448750e+09 -22.073151 96.127308 130.732150
5.449000e+09 -22.426448 95.744677 130.003429
5.449250e+09 -22.517520 83.647281 127.817433
5.449500e+09 -22.493283 77.643357 128.845602
5.449750e+09 -22.343552 95.398345 127.022255
5.450000e+09 -22.383220 95.289284 128.894659
5.450250e+09 -22.933105 95.424678 128.842689
5.450500e+09 -22.360679 88.956211 127.129874
5.450750e+09 -22.702101 91.815236 125.254780
5.451000e+09 -22.737915 92.845161 127.472713
5.451250e+09 -22.332213 95.243250 126.026704
5.451500e+09 -23.087136 89.667312 128.117268
5.451750e+09 -23.116606 95.100189 129.068198
5.452000e+09 -23.770257 94.195082 125.864280
5.452250e+09 -23.311539 94.874467 127.153314
5.452500e+09 -23.451628 83.113381 126.918147
5.452750e+09 -23.098873 94.881269 125.037043
5.453000e+09 -24.182464 94.101029 123.223672
5.453250e+09 -24.346779 93.953307 122.559936
5.453500e+09 -24.523139 93.932423 123.519417
5.453750e+09 -24.272551 93.836475 121.896110
5.454000e+09 -23.950981 87.418096 121.450305
5.454250e+09 -23.688539 94.017246 120.574361
5.454500e+09 -25.005615 93.502326 121.548813
5.454750e+09 -23.910672 83.415885 120.739792
5.455000e+09 -24.579910 93.379271 119.835089
5.455250e+09 -25.311286 93.125666 119.946034
5.455500e+09 -24.324716 87.761664 118.926248
5.455750e+09 -24.312508 80.345201 118.976296
5.456000e+09 -24.319642 93.407514 118.251783
5.456250e+09 -24.791526 92.953321 116.898586
5.456500e+09 -25.837082 92.549151 116.794085
5.456750e+09 -24.762141 93.078890 118.810176
5.457000e+09 -25.282030 92.523493 116.949676
5.457250e+09 -25.037790 92.704213 116.047457
5.457500e+09 -25.842078 92.379027 117.986817
5.457750e+09 -26.350781 89.153056 118.197825
5.458000e+09 -25.949378 91.961707 113.529442
5.458250e+09 -26.604510 90.863450 113.720087
5.458500e+09 -25.819551 92.140019 115.447518
5.458750e+09 -26.960874 91.324104 114.126675
5.459000e+09 -26.508053 91.560673 114.090042
5.459250e+09 -27.035467 87.310098 114.811839
5.459500e+09 -26.063001 71.962552 113.115409
5.459750e+09 -26.581257 91.088280 109.961873
5.460000e+09 -26.815686 90.935858 107.235927
5.460250e+09 -26.502537 82.124669 109.840879
5.460500e+09 -26.777513 90.702716 107.573212
5.460750e+09 -27.857525 90.129584 106.830774
5.461000e+09 -27.019079 76.946243 107.318490
5.461250e+09 -27.142456 90.526177 108.921359
5.461500e+09 -28.114062 83.360135 109.416626
5.461750e+09 -27.574829 89.979814 105.139901
5.462000e+09 -27.540373 90.094381 106.833107
5.462250e+09 -28.476001 89.465942 107.303436
5.462500e+09 -28.601502 89.257527 105.931060
5.462750e+09 -27.654853 89.608478 104.697557
5.463000e+09 -28.118417 86.349892 101.342683
5.463250e+09 -28.379424 84.142973 103.388841
5.463500e+09 -28.291635 89.082891 102.514469
5.463750e+09 -28.639510 88.762567 103.025275
5.464000e+09 -29.354663 77.251698 101.536183
5.464250e+09 -29.322804 88.247894 99.821857
5.464500e+09 -28.554671 84.195297 99.379161
5.464750e+09 -29.817282 87.697699 96.244496
5.465000e+09 -28.743293 85.820354 95.836953
5.465250e+09 -29.027518 81.797317 95.540665
5.465500e+09 -30.013879 84.830255 94.185444
5.465750e+09 -29.789769 87.383496 94.785814
5.466000e+09 -29.492720 87.379415 91.734857
5.466250e+09 -29.561293 87.274639 92.201223
5.466500e+09 -29.858549 87.057616 91.233800
5.466750e+09 -30.252065 74.505511 90.491536
5.467000e+09 -29.961988 86.707621 89.579207
5.467250e+09 -31.089690 86.152342 88.462698
5.467500e+09 -30.566750 86.344436 86.675775
5.467750e+09 -31.248264 85.900238 86.562100
5.468000e+09 -30.690382 85.962468 85.065016
5.468250e+09 -31.233784 85.667067 81.757779
5.468500e+09 -31.343644 85.402971 79.434047
5.468750e+09 -31.143248 85.495078 76.760301
5.469000e+09 -31.115067 83.462743 77.411705
5.469250e+09 -31.130996 77.226722 75.533442
5.469500e+09 -31.316041 80.359104 76.609058
5.469750e+09 -31.147114 82.499622 75.154003
5.470000e+09 -31.190973 85.069964 73.165174
5.470250e+09 -31.994956 76.082591 69.566557
5.470500e+09 -31.703259 84.660431 66.746359
5.470750e+09 -32.179526 81.805555 67.333302
5.471000e+09 -31.682120 66.907377 65.258088
5.471250e+09 -31.776689 80.594094 64.754120
5.471500e+09 -32.167786 80.252121 61.111213
5.471750e+09 -32.423182 83.917904 61.785655
5.472000e+09 -32.544738 80.323712 60.849511
5.472250e+09 -32.028946 83.897248 56.886622
5.472500e+09 -32.652462 83.462914 53.969840
5.472750e+09 -32.046906 68.010153 54.044386
5.473000e+09 -32.099165 77.783378 52.347875
5.473250e+09 -32.419199 83.263849 53.303225
5.473500e+09 -32.066372 83.285499 51.378073
5.473750e+09 -32.632893 83.275928 49.984496
5.474000e+09 -32.712803 82.462916 48.942006
5.474250e+09 -32.822891 82.913221 46.844420
5.474500e+09 -32.997413 82.763950 41.718445
5.474750e+09 -32.486067 82.612253 41.010590
5.475000e+09 -32.510990 77.967061 41.313793
5.475250e+09 -32.353009 82.566409 38.028799
5.475500e+09 -32.669231 82.731100 39.090697
5.475750e+09 -32.088528 82.688085 35.028774
5.476000e+09 -32.639967 82.834382 31.405577
5.476250e+09 -32.115770 73.544352 32.221868
5.476500e+09 -32.022139 80.408750 29.171489
5.476750e+09 -32.245442 70.993796 25.545314
5.477000e+09 -32.007220 82.137231 24.061046
5.477250e+09 -31.905427 81.977255 22.732432
5.477500e+09 -31.922612 82.814101 22.579464
5.477750e+09 -31.812005 82.832891 22.209765
5.478000e+09 -31.971726 82.901890 21.261390
5.478250e+09 -32.083470 81.883778 17.460764
5.478500e+09 -31.984993 76.097030 17.545714
5.478750e+09 -31.462477 83.012345 14.841891
5.479000e+09 -31.829118 81.070609 14.153007
5.479250e+09 -31.660959 80.492662 12.768537
5.479500e+09 -31.118663 83.453596 8.059260
5.479750e+09 -31.040571 82.886078 9.184710
5.480000e+09 -31.229833 81.729744 6.711659
5.480250e+09 -30.739672 76.485834 7.612872
5.480500e+09 -30.733772 83.417590 4.949416
5.480750e+09 -31.012502 83.091029 6.260712
5.481000e+09 -30.734806 65.934851 2.348082
5.481250e+09 -30.361703 83.687978 2.464931
5.481500e+09 -30.440266 83.798596 1.747396
5.481750e+09 -30.688803 83.893969 -0.114876
5.482000e+09 -29.994433 83.981836 -2.438562
5.482250e+09 -29.925488 80.879773 -2.448776
5.482500e+09 -30.069303 84.096268 -5.530857
5.482750e+09 -30.121202 84.278488 -5.356776
5.483000e+09 -29.957317 83.881593 -6.440496
5.483250e+09 -29.391673 84.416954 -7.680761
5.483500e+09 -29.818830 84.300383 -8.946928
5.483750e+09 -29.642815 83.400011 -9.059099
5.484000e+09 -28.986017 82.361198 -10.828715
5.484250e+09 -28.987259 84.451856 -12.166965
5.484500e+09 -29.214956 84.625400 -12.524825
5.484750e+09 -28.967313 84.949667 -13.117239
5.485000e+09 -29.081661 82.804599 -14.264811
5.485250e+09 -28.825825 82.562646 -13.848774
5.485500e+09 -28.412482 85.137770 -15.713348
5.485750e+09 -28.441152 84.873601 -16.376631
5.486000e+09 -28.198553 85.190708 -17.965109
5.486250e+09 -28.170781 85.330618 -18.115662
5.486500e+09 -28.008507 85.373316 -18.734431
5.486750e+09 -27.964119 85.195861 -20.305411
5.487000e+09 -27.949889 85.358251 -21.090131
5.487250e+09 -27.614305 85.055019 -22.197956
5.487500e+09 -27.777464 85.750044 -21.262839
5.487750e+09 -27.632196 85.764245 -23.873005
5.488000e+09 -27.643543 73.895815 -24.493732
5.488250e+09 -27.348410 85.673796 -25.235705
5.488500e+09 -27.473280 85.855910 -26.175220
5.488750e+09 -26.750926 86.043909 -25.838355
5.489000e+09 -26.826716 77.671201 -26.668030
5.489250e+09 -26.859339 84.843873 -28.725592
5.489500e+09 -26.453180 85.549952 -29.385840
5.489750e+09 -26.553617 82.234744 -29.591611
5.490000e+09 -26.493340 85.987211 -29.786266
5.490250e+09 -26.845114 84.993934 -31.153128
5.490500e+09 -26.362492 86.375635 -31.669713
5.490750e+09 -26.467533 86.543236 -32.272388
5.491000e+09 -26.171764 83.973417 -31.989892
5.491250e+09 -26.096085 73.392909 -31.610112
5.491500e+09 -25.924072 86.492793 -33.933963
5.491750e+09 -25.960424 86.815852 -32.965415
5.492000e+09 -25.377560 85.985047 -32.620811
5.492250e+09 -25.964337 86.822778 -35.356904
5.492500e+09 -25.438159 74.174838 -33.792629
5.492750e+09 -25.769882 86.915751 -36.732766
5.493000e+09 -25.597137 75.725439 -38.114286
5.493250e+09 -25.752123 81.366423 -37.982162
5.493500e+09 -25.574092 87.087297 -38.428747
5.493750e+09 -25.326042 81.545045 -37.854686
5.494000e+09 -24.742286 84.156247 -40.530519
5.494250e+09 -24.963871 86.871276 -40.901551
5.494500e+09 -24.476952 80.267483 -41.581432
5.494750e+09 -24.300986 84.561710 -41.190174
5.495000e+09 -25.011007 84.973618 -42.294085
5.495250e+09 -24.292311 80.774392 -40.798297
5.495500e+09 -24.981109 83.145704 -41.167213
5.495750e+09 -24.813075 86.459877 -42.470242
5.496000e+09 -24.309532 83.175714 -44.816160
5.496250e+09 -24.291751 87.553856 -44.894518
5.496500e+09 -24.692747 87.686467 -44.634657
5.496750e+09 -24.258879 87.123678 -43.271989
5.497000e+09 -23.675392 84.486983 -44.610365
5.497250e+09 -24.253662 78.752802 -46.283197
5.497500e+09 -23.569780 87.732234 -47.733294
5.497750e+09 -23.555652 88.263069 -45.959189
5.498000e+09 -23.345635 86.665370 -47.537530
5.498250e+09 -23.562348 88.379651 -45.918967
5.498500e+09 -23.393306 82.067448 -45.498375
5.498750e+09 -23.309170 78.807397 -46.178696
5.499000e+09 -23.186275 81.940515 -49.129534
5.499250e+09 -22.810857 88.489673 -50.376395
5.499500e+09 -23.067030 88.270127 -51.037963
5.499750e+09 -23.553076 86.530220 -52.730046
5.500000e+09 -23.420059 88.526768 -50.542592
5.500250e+09 -23.590194 88.306910 -51.361884
5.500500e+09 -23.035611 88.270809 -53.778425
5.500750e+09 -22.934008 88.679080 -51.901225
5.501000e+09 -22.421713 88.691019 -53.503850
5.501250e+09 -22.678036 88.887054 -52.578779
5.501500e+09 -22.528465 88.514149 -54.744725
5.501750e+09 -22.687064 82.831362 -56.632095
5.502000e+09 -22.093190 88.964807 -56.593642
5.502250e+09 -22.568943 76.120543 -55.103206
5.502500e+09 -22.345371 88.735965 -56.803578
5.502750e+09 -22.786571 86.197233 -55.689668
5.503000e+09 -21.989689 88.427018 -55.104622
5.503250e+09 -22.132645 88.832983 -57.384561
5.503500e+09 -22.460582 88.826676 -59.805917
5.503750e+09 -21.757439 89.170565 -59.607046
5.504000e+09 -21.701161 89.263767 -59.203673
5.504250e+09 -21.964296 63.009131 -57.597755
5.504500e+09 -21.795712 86.755656 -59.134621
5.504750e+09 -22.305431 81.571063 -60.541803
5.505000e+09 -21.786959 89.180934 -61.615095
5.505250e+09 -21.615514 89.550000 -59.712470
5.505500e+09 -21.377612 87.162122 -59.350761
5.505750e+09 -21.228287 87.346149 -59.528805
5.506000e+09 -21.976321 89.334037 -59.460626
5.506250e+09 -22.035114 89.262715 -59.936601
5.506500e+09 -22.087910 82.168917 -63.131259
5.506750e+09 -21.236401 89.703469 -61.933860
5.507000e+09 -20.836192 89.774871 -62.597845
5.507250e+09 -21.972935 89.313989 -64.381837
5.507500e+09 -21.054580 89.486572 -65.993813
5.507750e+09 -21.790543 89.472689 -63.674053
5.508000e+09 -21.214094 84.950575 -66.357098
5.508250e+09 -20.780011 89.486323 -65.316443
5.508500e+09 -21.423423 78.939803 -64.054400
5.508750e+09 -20.734528 87.185300 -65.368066
5.509000e+09 -21.496317 89.483447 -67.164622
5.509250e+09 -20.467648 90.032787 -67.841160
5.509500e+09 -20.403387 90.056143 -66.623688
5.509750e+09 -20.711499 74.089440 -68.233845
5.510000e+09 -21.147087 88.067043 -70.049820
5.510250e+09 -20.719852 90.126915 -66.933173
5.510500e+09 -20.417463 87.390414 -66.673977
5.510750e+09 -20.831961 89.929347 -67.801527
5.511000e+09 -20.424421 90.212281 -68.489290
5.511250e+09 -20.914316 89.976010 -68.500445
5.511500e+09 -21.271920 89.431325 -69.411191
5.511750e+09 -21.133459 89.830687 -69.918243
5.512000e+09 -20.598836 90.011335 -72.897805
5.512250e+09 -20.531267 89.999179 -73.732598
5.512500e+09 -20.750601 90.079543 -71.795018
5.512750e+09 -19.864559 90.405173 -72.536057
5.513000e+09 -19.950556 77.174697 -71.067516
5.513250e+09 -19.722959 88.818389 -70.775571
5.513500e+09 -19.814106 90.620973 -71.224551
5.513750e+09 -20.931269 89.044478 -73.124466
5.514000e+09 -19.771787 79.179021 -74.464142
5.514250e+09 -20.699080 90.079743 -73.519243
5.514500e+09 -20.664963 90.073845 -75.246560
5.514750e+09 -20.504434 90.147432 -76.468835
5.515000e+09 -19.902514 90.481855 -78.088483
5.515250e+09 -19.910784 83.839604 -79.463342
5.515500e+09 -19.768586 90.611803 -77.013993
5.515750e+09 -20.456748 90.241438 -77.925178
5.516000e+09 -20.292638 90.226565 -79.185245
5.516250e+09 -19.118262 90.704607 -80.354214
5.516500e+09 -19.852481 90.478763 -80.381395
5.516750e+09 -19.202313 90.834556 -80.433685
5.517000e+09 -19.201297 90.949894 -78.344423
5.517250e+09 -19.259067 90.784544 -81.011768
5.517500e+09 -19.230690 90.913610 -78.039791
5.517750e+09 -19.758583 88.013196 -80.737419
5.518000e+09 -20.079375 90.455142 -79.630592
5.518250e+09 -20.023469 85.808783 -78.755143
5.518500e+09 -19.520353 86.826612 -81.757246
5.518750e+09 -19.465507 82.229838 -80.116318
5.519000e+09 -18.868854 88.521721 -81.399948
5.519250e+09 -19.865741 88.830020 -82.926148
5.519500e+09 -18.964443 91.066326 -83.253389
5.519750e+09 -19.087822 90.949320 -85.583036
5.520000e+09 -18.897376 91.239885 -82.565458
5.520250e+09 -19.148896 90.966706 -84.741984
5.520500e+09 -19.259337 90.947689 -85.714397
5.520750e+09 -19.855404 90.617987 -83.544331
5.521000e+09 -18.604090 91.202083 -84.598564
5.521250e+09 -19.760228 88.486281 -84.211328
5.521500e+09 -18.647614 78.312133 -83.939307
5.521750e+09 -18.451585 91.372437 -85.957214
5.522000e+09 -18.887256 91.232503 -83.603358
5.522250e+09 -19.029520 86.359356 -83.146032
5.522500e+09 -19.833421 90.702312 -84.816604
5.522750e+09 -18.457555 91.365463 -88.129073
5.523000e+09 -19.571822 90.849489 -86.702297
5.523250e+09 -18.293640 88.964572 -87.423700
5.523500e+09 -18.901808 86.524707 -90.075863
5.523750e+09 -18.053942 79.979042 -87.260826
5.524000e+09 -19.067104 88.800791 -88.353994
5.524250e+09 -18.801288 91.322181 -87.073068
5.524500e+09 -18.823030 85.765549 -90.407326
5.524750e+09 -18.815239 91.387012 -89.643745
5.525000e+09 -19.032037 91.212589 -91.088377
5.525250e+09 -18.910920 91.265987 -89.050631
5.525500e+09 -19.418383 89.812124 -90.853289
5.525750e+09 -18.274319 91.657759 -90.109249
5.526000e+09 -18.250326 91.436289 -89.334924
5.526250e+09 -19.355284 91.043743 -91.724889
5.526500e+09 -18.054412 84.997194 -92.951592
5.526750e+09 -18.033505 91.710506 -92.833899
5.527000e+09 -18.058111 89.355890 -93.514302
5.527250e+09 -17.968068 91.761716 -94.197214
5.527500e+09 -18.538389 91.602515 -95.794313
5.527750e+09 -19.256077 91.126805 -95.797230
5.528000e+09 -19.093059 91.223655 -94.692180
5.528250e+09 -18.177964 91.756225 -95.143461
5.528500e+09 -17.791764 87.773170 -95.575855
5.528750e+09 -17.764102 87.437222 -96.098614
5.529000e+09 -18.275788 91.709461 -98.150558
5.529250e+09 -19.066752 91.369763 -98.596050
5.529500e+09 -19.043746 78.708052 -96.495751
5.529750e+09 -18.779017 88.485854 -98.182282
5.530000e+09 -17.756898 91.965317 -99.482702
5.530250e+09 -18.668359 91.539757 -97.258920
5.530500e+09 -17.720523 92.044674 -96.897195
5.530750e+09 -17.646384 92.098548 -96.887927
5.531000e+09 -18.684849 91.528284 -98.274037
5.531250e+09 -17.554606 92.143803 -98.312957
5.531500e+09 -18.301172 91.740013 -96.621218
5.531750e+09 -17.651073 92.081979 -99.565296
5.532000e+09 -18.836741 91.512588 -99.400728
5.532250e+09 -18.915313 85.947079 -101.003605
5.532500e+09 -17.857220 74.552581 -101.761962
5.532750e+09 -18.587542 91.799017 -101.307326
5.533000e+09 -18.664986 74.248357 -100.300837
5.533250e+09 -18.525876 91.723401 -104.078330
5.533500e+09 -18.584058 91.654914 -102.215878
5.533750e+09 -18.802602 91.623655 -102.437026
5.534000e+09 -18.403971 89.943717 -103.985200
5.534250e+09 -18.572848 66.112889 -104.773982
5.534500e+09 -17.581347 87.465255 -103.771269
5.534750e+09 -17.389189 92.369183 -103.825455
5.535000e+09 -17.315655 92.376285 -103.365059
5.535250e+09 -17.394816 90.440694 -104.641547
5.535500e+09 -18.296724 91.986153 -105.179093
5.535750e+09 -17.305995 75.016960 -105.062752
5.536000e+09 -17.725546 82.387293 -102.655145
5.536250e+09 -18.519163 85.043538 -106.973383
5.536500e+09 -18.318255 92.048685 -108.313148
5.536750e+09 -17.470644 86.879155 -105.397545
5.537000e+09 -18.396874 91.848953 -105.022870
5.537250e+09 -18.354252 91.924784 -106.099430
5.537500e+09 -18.330437 91.498709 -109.094599
5.537750e+09 -18.235175 92.016326 -107.786887
5.538000e+09 -17.778418 80.880334 -105.635612
5.538250e+09 -17.201727 86.568918 -106.655947
5.538500e+09 -18.121261 88.140886 -108.223528
5.538750e+09 -17.331306 92.638382 -110.259135
5.539000e+09 -17.280084 92.600438 -111.339778
5.539250e+09 -17.147263 92.578253 -109.736635
5.539500e+09 -17.870262 89.823920 -110.292526
5.539750e+09 -18.128141 80.738779 -108.049221
5.540000e+09 -18.035582 92.026324 -108.013253
5.540250e+09 -17.658885 89.972975 -111.401726
5.540500e+09 -17.668344 92.332889 -110.833489
5.540750e+09 -17.365701 60.825345 -111.763479
5.541000e+09 -17.112629 92.762687 -113.149052
5.541250e+09 -17.658730 92.599367 -114.661262
5.541500e+09 -17.171002 90.187259 -114.407616
5.541750e+09 -17.141588 92.775946 -113.607019
5.542000e+09 -18.093795 81.534572 -115.165900
5.542250e+09 -16.958290 91.039204 -115.245274
5.542500e+09 -16.863986 92.858369 -114.460411
5.542750e+09 -17.961890 92.244041 -112.303751
5.543000e+09 -17.394022 92.792908 -116.434049
5.543250e+09 -17.138879 92.880402 -117.111677
5.543500e+09 -18.100034 92.299027 -116.002470
5.543750e+09 -17.086760 91.524483 -117.360603
5.544000e+09 -17.030883 92.973098 -118.345477
5.544250e+09 -17.757111 76.097968 -115.812166
5.544500e+09 -16.923917 91.794054 -116.206814
5.544750e+09 -17.753936 87.631711 -118.450659
5.545000e+09 -17.074479 92.906124 -118.382422
5.545250e+09 -17.206607 78.448904 -118.929570
5.545500e+09 -17.766317 83.423251 -120.115687
5.545750e+09 -17.164884 92.975096 -119.545350
5.546000e+09 -16.948251 91.805912 -120.553937
5.546250e+09 -16.967321 92.875122 -119.292961
5.546500e+09 -17.673245 92.774942 -120.766927
5.546750e+09 -17.041540 89.903158 -119.385788
5.547000e+09 -17.393711 92.699665 -117.834641
5.547250e+09 -16.748929 93.239656 -120.656042
5.547500e+09 -17.065862 92.878411 -119.360681
5.547750e+09 -17.505683 85.996486 -118.812274
5.548000e+09 -16.702402 93.153923 -120.632092
5.548250e+09 -17.916977 92.559935 -121.610996
5.548500e+09 -17.781064 80.600436 -123.609955
5.548750e+09 -16.974052 84.272814 -123.610715
5.549000e+09 -17.682866 92.802132 -123.530102
5.549250e+09 -17.347766 93.201408 -125.359580
5.549500e+09 -17.710272 86.259275 -126.111152
5.549750e+09 -16.844086 93.339330 -125.683558
5.550000e+09 -16.808557 84.110583 -124.372337
5.550250e+09 -17.493790 92.874659 -126.231903
5.550500e+09 -17.173572 81.725027 -125.875154
5.550750e+09 -16.981129 93.041816 -125.156818
5.551000e+09 -16.692274 93.226575 -124.911460
5.551250e+09 -16.810690 81.366454 -125.397467
5.551500e+09 -17.645940 93.052668 -128.442708
5.551750e+09 -16.761177 91.065656 -128.037306
5.552000e+09 -16.712664 81.569869 -128.706791
5.552250e+09 -17.551256 91.791459 -128.801058
5.552500e+09 -17.638837 89.659140 -130.154715
5.552750e+09 -17.630614 92.880334 -128.366696
5.553000e+09 -17.059145 93.382932 -129.938835
5.553250e+09 -16.970630 87.164509 -131.580979
5.553500e+09 -17.078259 92.004930 -130.176316
5.553750e+09 -16.649084 93.557375 -129.973978
5.554000e+09 -17.523305 92.949640 -129.720784
5.554250e+09 -17.237404 93.422826 -131.180891
5.554500e+09 -16.822854 93.594472 -131.642930
5.554750e+09 -17.444169 93.052676 -131.309095
5.555000e+09 -16.726159 93.385284 -130.719176
5.555250e+09 -17.533324 93.072233 -132.092910
5.555500e+09 -16.761873 93.777743 -133.613855
5.555750e+09 -16.479765 89.333120 -132.508111
5.556000e+09 -17.498906 93.069313 -133.018515
5.556250e+09 -17.362636 91.557448 -132.342981
5.556500e+09 -16.607314 93.758850 -134.573140
5.556750e+09 -16.664411 93.769436 -135.132860
5.557000e+09 -16.732313 93.428905 -134.325854
5.557250e+09 -16.673845 84.131988 -133.693899
5.557500e+09 -17.073098 93.632745 -135.801642
5.557750e+09 -16.657419 83.249439 -135.862390
5.558000e+09 -16.526544 87.043634 -136.208508
5.558250e+09 -16.491015 93.794802 -136.756780
5.558500e+09 -17.460619 91.841326 -137.720689
5.558750e+09 -17.479716 93.282984 -137.039260
5.559000e+09 -16.486882 93.710962 -136.653078
5.559250e+09 -16.503771 93.863038 -137.933342
5.559500e+09 -16.896737 93.372227 -137.626759
5.559750e+09 -16.706848 93.814329 -139.147692
5.560000e+09 -16.489017 93.774546 -139.276141
5.560250e+09 -17.312757 93.601360 -140.963865
5.560500e+09 -17.263735 93.604533 -142.038397
5.560750e+09 -16.722358 87.304869 -142.100946
5.561000e+09 -16.630106 94.007344 -142.613056
5.561250e+09 -16.625268 90.780820 -141.836619
5.561500e+09 -17.279944 93.591485 -142.637131
5.561750e+09 -17.397162 93.424726 -142.767032
5.562000e+09 -16.724032 93.940850 -143.896844
5.562250e+09 -16.881906 93.487994 -142.748703
5.562500e+09 -17.088189 93.983927 -144.724608
5.562750e+09 -16.550405 93.927680 -144.570263
5.563000e+09 -16.701944 93.980994 -145.926901
5.563250e+09 -17.006361 93.464700 -144.941229
5.563500e+09 -16.954139 94.020958 -146.661746
5.563750e+09 -17.470751 93.443835 -146.418381
5.564000e+09 -16.489479 86.057279 -146.666594
5.564250e+09 -17.209089 93.378740 -146.794077
5.564500e+09 -16.672083 93.501913 -146.842388
5.564750e+09 -16.680207 94.053269 -148.088681
5.565000e+09 -16.969078 93.461478 -146.924976
5.565250e+09 -17.155610 93.390415 -147.371381
5.565500e+09 -16.641381 93.726244 -147.464541
5.565750e+09 -17.155468 93.909579 -149.975770
5.566000e+09 -17.436700 89.357123 -150.921063
5.566250e+09 -17.321815 93.347132 -149.567583
5.566500e+09 -16.961452 86.450402 -148.993542
5.566750e+09 -17.354899 93.690635 -150.934644
5.567000e+09 -17.178067 93.860517 -152.035283
5.567250e+09 -17.462630 93.604623 -152.956070
5.567500e+09 -16.765962 93.860456 -152.393373
5.567750e+09 -16.933493 94.088678 -153.562334
5.568000e+09 -16.919419 94.121757 -154.198057
5.568250e+09 -16.921906 93.724616 -153.518967
5.568500e+09 -17.454936 90.633076 -154.658561
5.568750e+09 -16.986306 93.537850 -153.323784
5.569000e+09 -17.403512 81.422771 -153.897652
5.569250e+09 -17.422406 88.124891 -155.217207
5.569500e+09 -17.509047 87.610124 -155.461957
5.569750e+09 -17.355692 93.325770 -155.018719
5.570000e+09 -17.505121 93.626768 -155.937133
5.570250e+09 -17.287659 87.278273 -156.435343
5.570500e+09 -17.197121 79.671144 -157.595604
5.570750e+09 -16.967478 91.446076 -157.474776
5.571000e+09 -17.025942 88.567194 -157.786307
5.571250e+09 -16.975466 93.731651 -157.162783
5.571500e+09 -17.499263 93.510123 -157.989514
5.571750e+09 -17.090592 92.796804 -159.286345
5.572000e+09 -17.576876 92.271813 -159.407632
5.572250e+09 -17.135432 93.579182 -158.631186
5.572500e+09 -17.646965 81.666128 -159.597916
5.572750e+09 -17.486882 91.559391 -159.478497
5.573000e+09 -17.452871 87.741716 -159.655551
5.573250e+09 -17.273861 90.263354 -160.957075
5.573500e+09 -17.330041 93.498499 -160.880959
5.573750e+09 -17.628965 93.344360 -161.993622
5.574000e+09 -17.507312 90.809806 -161.439318
5.574250e+09 -17.263626 89.039235 -161.963552
5.574500e+09 -17.259460 93.537033 -162.150442
5.574750e+09 -17.228572 93.803656 -162.519612
5.575000e+09 -17.370284 92.115706 -162.447500
5.575250e+09 -17.327833 81.060927 -163.553301
5.575500e+09 -17.449129 88.980255 -164.687425
5.575750e+09 -17.491268 93.223507 -163.565484
5.576000e+09 -17.501699 87.105978 -163.448498
5.576250e+09 -17.381074 93.398590 -163.757108
5.576500e+09 -17.394713 83.330545 -165.338486
5.576750e+09 -17.724710 93.581217 -165.620884
5.577000e+09 -17.485233 93.913442 -166.306349
5.577250e+09 -17.491130 93.355300 -165.646691
5.577500e+09 -17.629314 93.782391 -166.666096
5.577750e+09 -17.494390 88.944604 -166.885452
5.578000e+09 -17.606756 93.282576 -166.842687
5.578250e+09 -17.515578 93.418723 -167.225455
5.578500e+09 -17.719863 93.654993 -167.812967
5.578750e+09 -17.751592 91.005136 -168.653670
5.579000e+09 -17.545332 93.810817 -169.212012
5.579250e+09 -17.545873 78.410345 -168.980343
5.579500e+09 -17.689588 82.127825 -168.644171
5.579750e+09 -17.820049 93.679123 -170.083559
5.580000e+09 -17.847074 86.809394 -169.570987
5.580250e+09 -17.853149 89.465479 -169.973068
5.580500e+09 -17.875395 93.242091 -170.602283
5.580750e+09 -17.808958 93.141548 -170.328407
5.581000e+09 -17.667410 79.310859 -170.979217
5.581250e+09 -17.880601 89.848736 -171.821020
5.581500e+09 -17.655966 80.566784 -172.004379
5.581750e+09 -17.872434 93.656338 -172.003285
5.582000e+09 -17.710158 88.091058 -172.665355
5.582250e+09 -17.879452 93.578814 -172.600052
5.582500e+09 -17.761280 88.571464 -172.661936
5.582750e+09 -17.914596 93.111603 -173.301564
5.583000e+09 -17.880332 89.412843 -173.440294
5.583250e+09 -17.883066 93.699671 -174.227138
5.583500e+09 -17.926744 74.532852 -174.018793
5.583750e+09 -17.963636 93.186176 -174.269154
5.584000e+09 -17.980332 93.478161 -175.041740
5.584250e+09 -17.864055 93.191141 -175.105752
5.584500e+09 -17.927394 87.913393 -175.112092
5.584750e+09 -17.896036 91.717208 -175.831009
5.585000e+09 -17.915599 93.619365 -176.279623
5.585250e+09 -17.962594 93.628412 -176.736355
5.585500e+09 -18.019824 89.690272 -176.711365
5.585750e+09 -17.291758 93.645743 -177.363645
5.586000e+09 -18.020203 86.359504 -177.610647
5.586250e+09 -18.033757 93.628800 -177.666482
5.586500e+09 -18.017537 78.877796 -177.665601
5.586750e+09 -18.040567 92.913473 -178.097526
5.587000e+09 -17.951767 85.189554 -178.778006
5.587250e+09 -17.983004 93.376827 -178.988276
5.587500e+09 -18.073926 93.223240 -179.189304
5.587750e+09 -18.063997 90.708439 -179.385588
5.588000e+09 -18.060579 86.878401 -179.761446
5.588250e+09 -18.064733 84.778120 -179.852446
5.588500e+09 -18.113070 93.467173 179.875127
5.588750e+09 -18.084028 92.913506 178.970992
5.589000e+09 -18.094506 93.195401 178.896464
5.589250e+09 -18.159620 77.186354 178.893967
5.589500e+09 -18.154331 92.827633 178.190055
5.589750e+09 -18.156742 92.823281 178.337559
5.590000e+09 -18.141929 93.224961 178.018246
5.590250e+09 -18.191294 93.438379 177.839561
5.590500e+09 -18.125177 92.928202 176.998317
5.590750e+09 -18.200630 93.291992 177.291839
5.591000e+09 -18.204820 93.412556 176.291721
5.591250e+09 -18.228746 93.443121 176.112225
5.591500e+09 -18.245840 91.840159 176.061429
5.591750e+09 -18.236035 91.572891 175.893587
5.592000e+09 -18.205576 91.350409 174.856545
5.592250e+09 -18.255041 91.222464 174.746326
5.592500e+09 -18.245314 90.140214 174.490275
5.592750e+09 -18.238371 92.015938 174.188006
5.593000e+09 -18.298837 92.818301 174.077474
5.593250e+09 -18.214660 81.451422 173.947814
5.593500e+09 -18.216573 92.970568 173.748618
5.593750e+09 -18.356269 93.167018 173.930500
5.594000e+09 -18.365198 92.863869 172.594661
5.594250e+09 -18.297147 92.707035 172.462593
5.594500e+09 -18.293087 92.687975 172.089955
5.594750e+09 -18.380243 93.248507 172.188059
5.595000e+09 -18.416796 92.986197 172.080998
5.595250e+09 -18.446531 93.050545 171.705553
5.595500e+09 -18.370938 92.592911 170.787683
5.595750e+09 -18.278719 92.897221 170.629029
5.596000e+09 -18.378804 91.862645 169.922743
5.596250e+09 -18.319131 84.537919 170.309989
5.596500e+09 -17.693295 93.132765 169.845913
5.596750e+09 -18.289634 69.742624 169.827627
5.597000e+09 -18.495078 87.353649 169.679275
5.597250e+09 -18.317307 93.004450 169.231384
5.597500e+09 -18.325464 92.849101 169.326430
5.597750e+09 -18.445264 57.028895 168.157151
5.598000e+09 -18.391941 87.631483 168.094771
5.598250e+09 -18.456186 86.100732 167.502781
5.598500e+09 -18.618007 86.880924 168.091266
5.598750e+09 -18.357001 92.722544 167.306005
5.599000e+09 -18.466729 92.449735 166.317751
5.599250e+09 -18.340240 76.656977 167.123223
5.599500e+09 -18.454733 92.444106 166.509137
5.599750e+09 -18.653724 92.801836 166.208077
5.600000e+09 -18.472289 78.216695 166.619339
5.600250e+09 -18.618907 90.712695 165.827104
5.600500e+09 -18.611912 92.432133 165.669501
5.600750e+09 -18.676145 92.508651 165.069472
5.601000e+09 -18.497460 88.844202 165.407687
5.601250e+09 -18.703484 92.824275 165.120486
5.601500e+09 -18.427760 92.469649 164.150642
5.601750e+09 -18.753303 86.069521 164.132201
5.602000e+09 -18.579559 92.026362 164.100916
5.602250e+09 -18.690187 87.202845 162.884690
5.602500e+09 -18.437422 89.655256 162.368493
5.602750e+09 -18.613115 92.813279 163.089245
5.603000e+09 -18.647409 89.572253 161.970498
5.603250e+09 -18.789648 92.396952 162.245602
5.603500e+09 -18.785167 65.764312 161.712171
5.603750e+09 -18.846811 92.467219 161.925442
5.604000e+09 -18.493040 92.279000 160.987229
5.604250e+09 -18.565861 84.806375 159.957619
5.604500e+09 -18.486127 92.415992 160.060271
5.604750e+09 -18.442369 92.449515 159.707599
5.605000e+09 -18.555908 86.097928 159.092501
5.605250e+09 -18.655633 92.656804 159.793219
5.605500e+09 -18.710917 89.359986 160.757924
5.605750e+09 -18.549612 92.172808 159.379849
5.606000e+09 -18.456737 92.431208 158.548696
5.606250e+09 -18.645476 87.106373 159.195190
5.606500e+09 -18.774335 91.992619 157.794147
5.606750e+09 -18.601444 92.543874 158.081392
5.607000e+09 -18.927690 92.492713 158.468550
5.607250e+09 -19.025049 92.052523 158.073050
5.607500e+09 -18.584709 92.547952 157.336907
5.607750e+09 -18.701953 91.410652 156.651198
5.608000e+09 -18.532007 92.264794 156.950670
5.608250e+09 -18.911918 91.866890 155.969952
5.608500e+09 -18.976909 89.277952 155.672956
5.608750e+09 -18.598021 92.337666 156.069375
5.609000e+09 -18.697148 77.289289 156.876906
5.609250e+09 -19.044856 92.134551 156.153453
5.609500e+09 -18.606278 92.502542 156.306221
5.609750e+09 -18.695361 92.457544 156.353658
5.610000e+09 -18.654642 86.046860 155.865573
5.610250e+09 -18.651544 80.365155 153.895461
5.610500e+09 -18.639886 92.439623 154.954753
5.610750e+09 -18.839222 92.365807 154.920010
5.611000e+09 -18.541133 92.263070 153.657115
5.611250e+09 -19.131412 91.883099 153.401317
5.611500e+09 -18.655868 92.420956 153.865370
5.611750e+09 -18.981317 92.253652 154.030178
5.612000e+09 -19.045691 88.110426 154.140285
5.612250e+09 -18.671782 91.856949 152.032326
5.612500e+09 -19.156766 90.289885 151.938634
5.612750e+09 -18.912848 91.686383 151.672067
5.613000e+09 -18.727487 86.449579 152.311390
5.613250e+09 -18.572575 92.049902 151.017425
5.613500e+09 -19.174676 91.550579 150.642100
5.613750e+09 -18.617606 92.117813 149.780119
5.614000e+09 -19.180275 91.764510 150.308826
5.614250e+09 -18.759712 91.682267 148.873369
5.614500e+09 -18.556474 91.964340 148.649981
5.614750e+09 -18.689051 83.010376 148.952138
5.615000e+09 -19.116090 91.428544 147.678105
5.615250e+09 -19.242418 87.099059 147.405094
5.615500e+09 -18.617843 91.810009 147.379121
5.615750e+09 -19.002101 91.713920 148.282387
5.616000e+09 -18.939245 84.055239 147.367655
5.616250e+09 -19.076379 91.900950 147.952030
5.616500e+09 -19.075697 91.268394 146.715372
5.616750e+09 -18.871906 91.407101 145.427727
5.617000e+09 -18.620441 91.923238 146.734376
5.617250e+09 -18.655529 91.712049 146.508230
5.617500e+09 -18.892491 91.276658 144.881343
5.617750e+09 -18.634953 64.339466 145.588717
5.618000e+09 -18.801306 91.398874 144.535216
5.618250e+09 -19.068510 91.709153 145.109605
5.618500e+09 -18.669465 91.594075 144.144246
5.618750e+09 -18.575149 91.681742 143.889228
5.619000e+09 -18.834625 87.575240 145.154746
5.619250e+09 -19.327670 91.312746 144.329183
5.619500e+09 -18.747299 91.523866 142.729003
5.619750e+09 -18.700192 91.773929 143.382223
5.620000e+09 -19.071094 89.860134 143.412967
5.620250e+09 -18.743355 91.743002 143.255349
5.620500e+09 -19.474512 84.676292 143.496727
5.620750e+09 -18.814587 91.677106 143.113836
5.621000e+09 -19.470300 78.114161 142.194196
5.621250e+09 -18.732192 85.191227 141.248671
5.621500e+09 -18.911562 91.181726 140.103079
5.621750e+09 -18.679784 91.482903 140.079243
5.622000e+09 -18.708012 89.379309 140.420841
5.622250e+09 -19.458561 84.748108 141.140195
5.622500e+09 -19.334834 89.347312 139.887119
5.622750e+09 -18.729586 91.236926 138.707908
5.623000e+09 -19.013457 91.006731 137.203200
5.623250e+09 -18.843925 84.726643 139.161028
5.623500e+09 -19.081113 91.438757 139.596289
5.623750e+09 -18.613361 91.342610 139.609249
5.624000e+09 -18.700743 91.225814 137.001297
5.624250e+09 -19.270013 90.158494 138.663711
5.624500e+09 -19.593340 90.978716 138.085312
5.624750e+09 -19.131503 90.820045 136.493670
5.625000e+09 -19.269024 91.209184 136.977877
5.625250e+09 -19.534992 90.994810 137.565694
5.625500e+09 -18.973815 90.804603 134.934329
5.625750e+09 -18.756262 91.003195 134.385628
5.626000e+09 -18.784769 87.261157 134.458559
5.626250e+09 -19.761844 90.530592 134.457382
5.626500e+09 -19.789592 90.433227 134.111326
5.626750e+09 -19.713938 90.792305 135.388543
5.627000e+09 -19.818500 88.683556 133.477143
5.627250e+09 -19.585317 90.325460 131.397041
5.627500e+09 -19.874673 90.363363 132.851408
5.627750e+09 -19.683463 90.355372 130.094364
5.628000e+09 -18.882755 90.787519 131.343913
5.628250e+09 -19.075563 90.516555 131.181037
5.628500e+09 -19.976963 90.123073 130.754026
5.628750e+09 -19.572872 90.623171 131.545598
5.629000e+09 -19.111660 90.659468 131.553101
5.629250e+09 -20.127512 87.501143 131.483087
5.629500e+09 -20.171007 89.947058 130.391855
5.629750e+09 -20.055633 88.658429 132.041224
5.630000e+09 -19.373118 86.808778 130.921023
5.630250e+09 -19.182323 90.508307 130.415303
5.630500e+09 -19.530442 90.490003 131.080065
5.630750e+09 -20.233668 71.347005 129.073441
5.631000e+09 -19.747739 82.886370 126.750218
5.631250e+09 -20.453636 84.546884 127.500263
5.631500e+09 -20.303966 89.885994 128.808020
5.631750e+09 -19.410197 90.275980 129.021257
5.632000e+09 -19.542057 89.865400 126.713831
5.632250e+09 -20.486513 89.588674 127.178030
5.632500e+09 -20.005191 76.199511 129.368700
5.632750e+09 -19.682240 89.739544 126.507830
5.633000e+09 -20.461795 82.971660 127.608528
5.633250e+09 -20.357807 89.355072 125.172693
5.633500e+09 -19.626652 89.610837 125.417258
5.633750e+09 -20.406260 87.787666 123.905033
5.634000e+09 -20.171085 89.699697 126.256640
5.634250e+09 -20.463360 89.469541 127.393309
5.634500e+09 -20.832681 85.828272 126.635038
5.634750e+09 -19.823453 83.241072 126.276106
5.635000e+09 -20.486584 88.248798 126.917679
5.635250e+09 -20.482126 89.341790 126.459190
5.635500e+09 -20.173707 89.472747 127.107919
5.635750e+09 -20.760687 89.196123 127.429386
5.636000e+09 -19.893893 89.141358 126.616686
5.636250e+09 -20.522222 88.812869 123.317873
5.636500e+09 -20.592703 86.478611 125.658912
5.636750e+09 -21.186095 88.781853 125.936254
5.637000e+09 -20.020959 75.200329 125.720143
5.637250e+09 -21.198470 88.605773 124.786904
5.637500e+09 -20.416548 84.951603 123.360582
5.637750e+09 -20.796745 88.925814 125.122182
5.638000e+09 -20.888653 87.654382 122.358841
5.638250e+09 -20.500477 88.734090 122.880840
5.638500e+09 -20.509002 88.814398 123.329116
5.638750e+09 -21.318720 88.233978 122.433468
5.639000e+09 -21.358041 88.218774 121.460804
5.639250e+09 -20.409357 80.561781 123.177515
5.639500e+09 -21.224094 87.760592 123.723465
5.639750e+09 -20.994065 88.524471 124.627818
5.640000e+09 -20.730057 86.435418 122.731100
5.640250e+09 -21.593027 85.558126 121.539627
5.640500e+09 -20.418170 88.477408 122.030427
5.640750e+09 -21.281989 80.056730 120.021142
5.641000e+09 -21.065490 78.532041 122.805477
5.641250e+09 -20.549253 84.966324 123.529487
5.641500e+09 -20.616834 80.107777 122.587929
5.641750e+09 -21.010897 87.962857 120.167230
5.642000e+09 -21.680553 87.977113 122.180349
5.642250e+09 -21.289387 87.790229 120.090042
5.642500e+09 -21.717703 87.832830 121.625754
5.642750e+09 -21.306072 87.741177 120.255473
5.643000e+09 -21.466101 87.844878 122.579905
5.643250e+09 -20.935366 85.818429 123.039649
5.643500e+09 -21.457158 87.637790 120.464352
5.643750e+09 -20.991544 87.780437 119.593464
5.644000e+09 -21.904321 62.381505 119.078067
5.644250e+09 -21.613957 77.457531 121.288120
5.644500e+09 -20.951851 74.781048 122.668321
5.644750e+09 -21.492739 87.476183 119.020699
5.645000e+09 -21.342903 87.667729 121.350063
5.645250e+09 -22.146783 87.216578 120.481854
5.645500e+09 -21.439538 85.951416 121.738330
5.645750e+09 -21.980153 87.171843 120.265050
5.646000e+09 -22.205456 87.050179 119.759290
5.646250e+09 -21.775804 87.117537 118.208282
5.646500e+09 -21.330977 83.197192 119.757477
5.646750e+09 -22.185898 82.524551 120.003154
5.647000e+09 -21.587842 87.151765 119.787180
5.647250e+09 -21.392362 87.299146 120.498691
5.647500e+09 -22.016263 87.295311 121.484508
5.647750e+09 -22.457357 79.361777 120.411513
5.648000e+09 -22.090029 87.097261 120.614083
5.648250e+09 -21.659766 87.005797 120.107038
5.648500e+09 -21.829975 87.123437 121.111036
5.648750e+09 -22.212964 81.561327 120.182616
5.649000e+09 -22.419920 86.196191 121.397995
5.649250e+09 -22.513470 82.103197 120.228639
5.649500e+09 -21.693652 86.885467 120.033367
5.649750e+09 -21.848423 86.874971 121.375039
5.650000e+09 -22.109275 86.615627 118.626136
5.650250e+09 -21.808171 86.661947 118.390931
5.650500e+09 -22.304216 70.553267 120.740972
5.650750e+09 -22.846773 86.340242 120.905637
5.651000e+09 -22.103383 86.793794 121.347767
5.651250e+09 -21.956643 86.426877 119.100358
5.651500e+09 -22.016509 48.902150 120.526280
5.651750e+09 -22.578442 74.270921 120.281076
5.652000e+09 -22.841293 86.142881 119.284120
5.652250e+09 -21.899918 86.372125 118.772242
5.652500e+09 -21.937593 80.055917 118.412450
5.652750e+09 -22.325644 86.080024 117.203796
5.653000e+09 -22.275740 86.372287 119.249782
5.653250e+09 -22.247622 86.348657 118.865097
5.653500e+09 -22.116387 85.263449 117.699555
5.653750e+09 -22.097613 86.272095 119.435985
5.654000e+09 -22.541941 85.789082 119.832506
5.654250e+09 -22.925665 85.966754 119.557220
5.654500e+09 -22.215510 86.085993 118.270774
5.654750e+09 -22.380101 83.587294 117.612008
5.655000e+09 -22.262379 82.813284 119.950267
5.655250e+09 -23.005300 85.761325 119.376426
5.655500e+09 -23.190501 85.711310 118.772420
5.655750e+09 -22.353890 85.863878 119.050393
5.656000e+09 -23.257399 78.448302 119.440895
5.656250e+09 -22.299772 86.020563 120.258161
5.656500e+09 -23.324814 77.469715 118.874764
5.656750e+09 -23.054230 85.608372 120.029596
5.657000e+09 -23.384015 81.617230 120.064588
5.657250e+09 -22.703040 78.663534 118.844644
5.657500e+09 -23.302699 85.667910 120.629749
5.657750e+09 -22.709744 83.860051 121.839672
5.658000e+09 -22.791128 80.679195 118.675908
5.658250e+09 -23.425212 85.265718 118.126884
5.658500e+09 -22.645550 73.097380 118.784668
5.658750e+09 -22.931809 85.570053 121.222790
5.659000e+09 -22.632234 84.960091 120.646467
5.659250e+09 -23.474487 85.022851 118.500053
5.659500e+09 -22.681047 79.007293 121.022578
5.659750e+09 -22.565365 85.489375 120.474993
5.660000e+09 -22.833657 82.805425 121.686080
5.660250e+09 -23.513718 85.395327 120.859056
5.660500e+09 -23.480903 85.262114 121.219076
5.660750e+09 -23.668913 85.072757 120.994030
5.661000e+09 -23.646762 84.834377 119.503042
5.661250e+09 -22.956024 85.288017 120.276312
5.661500e+09 -23.120090 83.001799 118.749339
5.661750e+09 -23.037672 85.035008 117.460927
5.662000e+09 -23.633560 75.592399 118.195005
5.662250e+09 -23.247115 76.739779 120.823190
5.662500e+09 -23.819339 84.824554 120.974148
5.662750e+09 -23.644385 71.481695 121.908376
5.663000e+09 -23.480776 84.897968 121.774942
5.663250e+09 -23.627831 84.994375 122.294597
5.663500e+09 -23.856650 84.774926 121.553209
5.663750e+09 -23.891558 84.814225 121.619980
5.664000e+09 -23.089438 84.943879 121.526390
5.664250e+09 -23.635641 84.715885 122.432951
5.664500e+09 -23.050163 84.845990 121.741613
5.664750e+09 -23.165371 84.634914 120.904885
5.665000e+09 -23.723671 77.593631 122.447081
5.665250e+09 -23.168358 84.700588 121.440472
5.665500e+09 -23.521350 84.639332 122.806396
5.665750e+09 -23.405818 83.859195 122.195538
5.666000e+09 -23.858083 84.501560 121.555879
5.666250e+09 -23.422813 84.191578 120.295482
5.666500e+09 -24.039744 82.196102 120.769295
5.666750e+09 -23.383102 84.579231 122.173977
5.667000e+09 -23.734577 84.474432 122.075164
5.667250e+09 -23.739362 84.529578 123.070098
5.667500e+09 -23.574907 84.527985 124.444739
5.667750e+09 -23.649072 75.220042 124.362986
5.668000e+09 -24.041162 84.487831 122.906803
5.668250e+09 -23.869624 77.782365 123.771788
5.668500e+09 -23.454102 84.405974 123.268852
5.668750e+09 -24.146898 84.175218 122.681581
5.669000e+09 -24.013574 84.118451 121.517007
5.669250e+09 -23.509800 84.250564 120.909714
5.669500e+09 -23.578534 84.219403 120.399977
5.669750e+09 -23.831956 84.067196 122.848315
5.670000e+09 -24.246183 77.286880 122.255357
5.670250e+09 -24.313186 83.994755 122.633420
5.670500e+09 -24.347935 83.977525 124.091274
5.670750e+09 -23.806431 81.395678 122.294842
5.671000e+09 -24.022329 83.836223 120.746504
5.671250e+09 -23.608338 78.921423 122.506496
5.671500e+09 -23.894720 76.605548 123.904722
5.671750e+09 -24.524056 83.909821 123.104591
5.672000e+09 -23.959045 65.448885 123.044747
5.672250e+09 -24.203363 83.816231 124.349154
5.672500e+09 -23.957144 83.869289 122.447728
5.672750e+09 -24.478393 83.819772 123.122193
5.673000e+09 -24.380343 75.427743 125.519680
5.673250e+09 -23.901399 83.778925 123.456083
5.673500e+09 -23.835053 83.884287 124.082045
5.673750e+09 -24.593129 82.676795 123.604950
5.674000e+09 -24.397852 83.408243 122.808516
5.674250e+09 -24.639213 80.941869 124.000737
5.674500e+09 -24.588120 83.743642 124.699570
5.674750e+09 -24.628002 83.512642 124.734917
5.675000e+09 -24.363426 63.499040 125.421275
5.675250e+09 -23.939991 83.790104 125.340218
5.675500e+09 -24.025681 77.215177 123.234424
5.675750e+09 -24.347554 83.169714 123.123462
5.676000e+09 -24.217961 83.476888 123.515916
5.676250e+09 -24.211397 83.511186 123.608935
5.676500e+09 -23.954156 83.553750 122.917360
5.676750e+09 -23.992933 83.693231 124.683258
5.677000e+09 -24.245606 83.683285 125.992478
5.677250e+09 -24.868611 82.539744 124.580327
5.677500e+09 -24.357192 83.493370 126.157683
5.677750e+09 -24.527105 83.345802 126.103179
5.678000e+09 -24.062828 83.465502 125.349512
5.678250e+09 -24.212304 83.353279 124.973268
5.678500e+09 -24.813516 83.243388 124.492406
5.678750e+09 -24.856823 36.198658 123.931386
5.679000e+09 -24.321240 83.204075 124.127446
5.679250e+09 -24.926960 63.219028 124.738833
5.679500e+09 -25.114745 83.030582 125.977530
5.679750e+09 -24.248849 74.065431 127.212600
5.680000e+09 -24.443413 83.105947 125.384507
5.680250e+09 -24.385947 79.152142 126.838460
5.680500e+09 -24.972225 77.489899 127.191967
5.680750e+09 -25.143535 83.023955 124.970738
5.681000e+09 -25.165333 82.934408 126.019012
5.681250e+09 -25.179539 76.985442 126.530363
5.681500e+09 -25.122478 82.898790 127.311994
5.681750e+09 -24.963241 80.944769 126.879096
5.682000e+09 -25.070673 80.771096 126.375680
5.682250e+09 -24.899353 83.052218 128.746169
5.682500e+09 -25.285533 83.009003 127.751915
5.682750e+09 -25.392491 82.963879 127.854724
5.683000e+09 -24.983815 82.727821 127.645369
5.683250e+09 -24.793015 82.753205 128.100484
5.683500e+09 -25.096945 82.516323 127.252594
5.683750e+09 -24.968945 73.102802 127.104070
5.684000e+09 -24.542033 82.937741 126.099412
5.684250e+09 -24.798002 82.890771 128.593419
5.684500e+09 -24.720333 75.111583 126.557544
5.684750e+09 -24.562900 79.388908 127.527267
5.685000e+09 -24.719861 82.789661 128.001953
5.685250e+09 -25.235574 82.257369 128.283780
5.685500e+09 -25.076570 82.846767 129.641679
5.685750e+09 -25.570892 82.863506 128.968136
5.686000e+09 -25.297994 82.815108 129.084680
5.686250e+09 -25.197178 80.369153 130.936627
5.686500e+09 -25.320604 82.436254 129.508060
5.686750e+09 -25.408090 82.524082 129.294257
5.687000e+09 -25.478726 82.801749 131.687157
5.687250e+09 -25.053262 82.784556 132.306372
5.687500e+09 -25.585456 82.480631 131.103116
5.687750e+09 -25.614457 80.199305 129.677754
5.688000e+09 -25.607689 82.596047 128.484847
5.688250e+09 -25.540094 81.975336 130.996814
5.688500e+09 -25.785684 82.441545 130.710696
5.688750e+09 -25.123375 82.224633 129.302490
5.689000e+09 -25.609549 71.894408 129.068192
5.689250e+09 -25.300304 79.570530 128.761667
5.689500e+09 -25.046914 82.452060 128.573488
5.689750e+09 -25.283484 72.572585 131.039323
5.690000e+09 -25.710816 82.237973 129.616691
5.690250e+09 -25.605010 82.222814 128.866833
5.690500e+09 -25.906643 82.287701 129.707277
5.690750e+09 -25.817746 82.258873 131.698536
5.691000e+09 -26.006841 82.185168 131.128897
5.691250e+09 -25.049516 78.891358 131.054243
5.691500e+09 -25.943728 66.876662 132.029486
5.691750e+09 -25.940843 81.993604 130.204762
5.692000e+09 -26.147755 81.889040 129.853014
5.692250e+09 -25.239447 82.132741 129.707549
5.692500e+09 -26.010927 76.210968 129.928165
5.692750e+09 -26.174901 82.217013 130.497056
5.693000e+09 -25.993502 81.787305 130.878842
5.693250e+09 -26.118575 81.954393 131.884952
5.693500e+09 -26.495584 82.017173 134.321557
5.693750e+09 -25.863234 81.925718 134.150543
5.694000e+09 -25.531593 82.068164 132.236797
5.694250e+09 -25.861783 81.718515 133.768386
5.694500e+09 -25.491381 82.186597 132.796053
5.694750e+09 -26.180479 80.204632 132.156961
5.695000e+09 -25.736527 81.790779 131.342580
5.695250e+09 -26.507520 80.327071 132.952775
5.695500e+09 -26.003263 80.934742 134.574961
5.695750e+09 -26.498698 81.676479 134.718266
5.696000e+09 -26.335104 77.378095 133.873098
5.696250e+09 -26.520875 81.533150 132.744226
5.696500e+09 -26.443435 81.735456 133.569801
5.696750e+09 -26.290945 76.634296 134.909818
5.697000e+09 -26.202906 76.490758 135.619525
5.697250e+09 -26.621569 81.580182 135.246149
5.697500e+09 -25.959360 81.681924 136.196843
5.697750e+09 -25.999735 77.529446 136.743538
5.698000e+09 -26.622967 71.867647 135.517902
5.698250e+09 -26.622935 81.615142 135.190030
5.698500e+09 -26.336298 81.428892 135.040343
5.698750e+09 -26.975110 80.530368 136.203156
5.699000e+09 -26.521240 68.450013 136.456097
5.699250e+09 -26.767765 79.044906 136.879017
5.699500e+09 -26.171042 81.401616 136.603217
5.699750e+09 -26.434599 80.987358 135.823762
5.700000e+09 -26.335701 64.600260 136.159696
