! S21 sweep bladeRF - TX0=40 db | RX0=50 db | RX1=50 db - 2025-12-11T14:50:51
# Frequency [MHz], |S21| [db], |Mag_meas| [db], Phase [deg]
5.100000e+09 1.818822 129.724004 -69.720243
5.100250e+09 1.991309 129.661796 -69.636379
5.100500e+09 2.003576 130.170796 -67.018461
5.100750e+09 2.224323 129.999708 -68.594208
5.101000e+09 1.948996 130.058568 -65.860107
5.101250e+09 1.763423 129.943819 -65.824061
5.101500e+09 1.803313 129.877971 -67.852810
5.101750e+09 2.075039 129.688569 -69.736547
5.102000e+09 2.569979 130.195159 -67.611702
5.102250e+09 2.109733 129.721867 -69.522782
5.102500e+09 2.363365 130.125802 -66.419081
5.102750e+09 2.385573 130.051126 -66.645163
5.103000e+09 2.004906 130.044485 -65.152801
5.103250e+09 2.358992 129.887211 -67.676344
5.103500e+09 1.827746 129.831167 -66.282242
5.103750e+09 1.897466 130.040455 -64.636809
5.104000e+09 2.188027 130.226677 -63.916207
5.104250e+09 2.441281 130.564433 -65.711786
5.104500e+09 2.559553 130.199146 -67.678324
5.104750e+09 2.033030 130.127447 -67.081004
5.105000e+09 2.305992 130.126260 -66.129600
5.105250e+09 2.136535 130.177771 -66.309832
5.105500e+09 2.170080 130.200756 -66.853160
5.105750e+09 2.460926 130.021933 -67.836091
5.106000e+09 1.835892 129.820805 -67.884399
5.106250e+09 2.250628 129.716285 -69.337831
5.106500e+09 1.772171 129.821366 -67.187368
5.106750e+09 2.245743 129.780482 -69.919077
5.107000e+09 1.809963 129.746788 -68.951344
5.107250e+09 2.226326 129.709090 -70.527995
5.107500e+09 2.121528 129.712285 -68.874876
5.107750e+09 2.698720 130.208512 -68.145037
5.108000e+09 2.009397 129.897362 -68.487040
5.108250e+09 2.083233 130.087703 -67.671519
5.108500e+09 2.481387 130.041854 -69.853912
5.108750e+09 2.416936 130.101049 -69.941511
5.109000e+09 2.168606 130.104866 -68.423792
5.109250e+09 2.550489 130.565553 -69.667279
5.109500e+09 2.412525 129.880944 -69.825064
5.109750e+09 2.076225 129.940689 -68.866310
5.110000e+09 2.399578 129.745987 -69.881371
5.110250e+09 2.361833 130.248573 -65.869247
5.110500e+09 2.588356 129.945690 -68.998227
5.110750e+09 2.382504 129.860613 -68.528341
5.111000e+09 2.740163 130.020539 -68.453863
5.111250e+09 2.834586 130.422294 -69.581651
5.111500e+09 2.297349 130.178585 -67.448127
5.111750e+09 2.406583 130.313529 -66.762675
5.112000e+09 2.892050 130.433021 -64.298240
5.112250e+09 2.739258 130.468471 -63.086747
5.112500e+09 2.794449 130.307218 -64.665436
5.112750e+09 2.671958 130.494077 -66.295661
5.113000e+09 2.384083 130.252641 -65.891200
5.113250e+09 2.752997 130.125237 -66.862634
5.113500e+09 2.459990 129.771900 -67.916596
5.113750e+09 2.312329 129.725468 -67.959997
5.114000e+09 2.303877 129.871061 -69.372166
5.114250e+09 2.098944 129.800541 -69.557841
5.114500e+09 2.177761 129.931646 -68.897439
5.114750e+09 2.455742 130.258601 -67.205450
5.115000e+09 2.467007 130.271497 -68.397697
5.115250e+09 2.497677 130.246345 -67.495398
5.115500e+09 2.738028 130.214956 -66.862332
5.115750e+09 2.841978 130.157822 -67.207198
5.116000e+09 2.651576 129.727246 -69.678516
5.116250e+09 2.203158 129.834756 -67.783371
5.116500e+09 2.595878 129.844543 -68.361482
5.116750e+09 2.392020 129.714256 -70.633485
5.117000e+09 2.630271 130.287082 -66.598339
5.117250e+09 3.062536 130.457778 -66.370615
5.117500e+09 2.820494 130.483093 -65.783934
5.117750e+09 2.745982 130.163147 -68.290142
5.118000e+09 2.506698 130.149977 -67.211549
5.118250e+09 2.725190 129.824049 -70.794758
5.118500e+09 2.815094 130.250350 -67.051863
5.118750e+09 2.693171 130.306363 -66.775698
5.119000e+09 2.806536 130.299463 -66.047341
5.119250e+09 3.043103 130.226827 -69.542124
5.119500e+09 3.041014 130.047375 -69.915604
5.119750e+09 2.838468 129.784700 -71.194498
5.120000e+09 3.210091 130.216246 -68.428352
5.120250e+09 3.046355 130.416873 -69.250415
5.120500e+09 2.853540 130.210993 -69.709758
5.120750e+09 2.952697 130.153171 -71.295278
5.121000e+09 2.744199 130.049119 -71.474691
5.121250e+09 2.904677 130.068258 -69.948919
5.121500e+09 2.710799 130.018192 -70.690810
5.121750e+09 2.461856 129.805501 -71.268184
5.122000e+09 2.803697 129.738020 -73.052862
5.122250e+09 3.005563 130.052516 -72.258747
5.122500e+09 2.771366 129.698508 -73.546978
5.122750e+09 3.465734 130.400303 -68.560628
5.123000e+09 3.144908 130.113743 -70.806350
5.123250e+09 2.922109 130.020031 -69.743376
5.123500e+09 2.882186 130.000446 -71.299376
5.123750e+09 2.771464 129.764691 -70.361757
5.124000e+09 2.699657 129.831765 -69.418277
5.124250e+09 2.717620 130.128120 -68.361597
5.124500e+09 2.920329 130.207567 -67.468790
5.124750e+09 2.877303 130.233453 -68.371428
5.125000e+09 3.227805 130.426697 -70.245822
5.125250e+09 3.632502 130.396614 -69.980397
5.125500e+09 3.008726 130.276121 -70.097577
5.125750e+09 3.117502 130.161273 -69.382399
5.126000e+09 3.420969 130.580086 -70.190795
5.126250e+09 3.392522 130.425385 -68.946279
5.126500e+09 3.229523 130.110622 -72.349136
5.126750e+09 2.908376 130.070091 -69.998928
5.127000e+09 3.036704 130.203199 -68.512452
5.127250e+09 3.517377 130.475464 -66.125696
5.127500e+09 3.187996 130.437156 -71.062074
5.127750e+09 3.470597 130.099469 -71.579181
5.128000e+09 2.670099 129.827771 -71.660537
5.128250e+09 2.711007 129.945820 -70.839964
5.128500e+09 3.172387 129.882122 -73.363802
5.128750e+09 3.679255 130.403164 -71.450062
5.129000e+09 3.168958 130.354885 -69.188380
5.129250e+09 3.234112 130.396212 -68.316921
5.129500e+09 3.254883 130.235243 -70.775914
5.129750e+09 3.429480 129.989255 -72.885034
5.130000e+09 2.884283 130.014752 -71.578583
5.130250e+09 2.858421 129.953178 -69.766531
5.130500e+09 3.171481 130.266496 -68.505865
5.130750e+09 3.215282 130.345510 -69.136345
5.131000e+09 3.778348 130.439740 -71.376430
5.131250e+09 2.997699 129.761563 -73.749479
5.131500e+09 3.780034 130.419470 -70.898981
5.131750e+09 3.308333 130.260790 -71.756608
5.132000e+09 3.713870 130.545815 -72.068905
5.132250e+09 3.180016 130.217214 -68.762991
5.132500e+09 3.385337 130.212866 -68.680427
5.132750e+09 3.672171 130.098566 -71.415378
5.133000e+09 3.200248 129.706751 -74.701474
5.133250e+09 3.690036 130.165660 -71.579092
5.133500e+09 3.533885 129.923032 -73.042315
5.133750e+09 2.821365 129.854841 -71.235541
5.134000e+09 3.412372 130.462131 -69.565877
5.134250e+09 3.700126 130.394931 -72.917251
5.134500e+09 3.693870 130.129155 -71.969384
5.134750e+09 3.172770 130.114981 -72.382604
5.135000e+09 3.273406 130.261775 -70.248616
5.135250e+09 3.817675 130.125234 -72.671464
5.135500e+09 2.952814 129.892092 -70.542378
5.135750e+09 3.442614 129.824237 -74.306465
5.136000e+09 3.708020 130.162531 -74.211090
5.136250e+09 3.189278 130.118966 -72.973515
5.136500e+09 3.622450 130.016789 -72.228921
5.136750e+09 3.163904 130.109038 -71.195704
5.137000e+09 3.681287 130.000165 -72.322383
5.137250e+09 3.560441 130.035893 -75.053616
5.137500e+09 3.342456 130.065988 -71.509086
5.137750e+09 3.761753 130.146731 -71.551577
5.138000e+09 3.605490 130.121222 -74.442264
5.138250e+09 3.568823 130.442352 -71.223837
5.138500e+09 3.601620 130.488505 -71.655747
5.138750e+09 3.960802 130.328447 -73.385677
5.139000e+09 3.637405 129.873083 -73.873426
5.139250e+09 3.474565 129.702381 -74.062853
5.139500e+09 3.845443 130.517574 -75.718159
5.139750e+09 3.471412 130.304187 -71.226181
5.140000e+09 3.575502 130.389831 -71.608096
5.140250e+09 4.243246 130.418396 -70.349682
5.140500e+09 3.787187 130.173987 -74.444688
5.140750e+09 3.288124 129.831674 -76.013556
5.141000e+09 3.310600 130.049247 -74.693390
5.141250e+09 3.487314 129.871152 -72.799017
5.141500e+09 3.752206 130.056656 -72.521708
5.141750e+09 3.786729 130.508220 -69.411819
5.142000e+09 4.295188 130.341986 -72.970645
5.142250e+09 3.769423 130.058710 -75.842750
5.142500e+09 3.415409 129.745380 -77.704400
5.142750e+09 3.640009 130.305299 -71.898137
5.143000e+09 4.180384 130.426872 -71.066256
5.143250e+09 3.746132 130.383765 -72.619935
5.143500e+09 4.336778 130.401852 -70.774966
5.143750e+09 4.196360 130.501063 -74.031902
5.144000e+09 3.983632 130.065322 -73.173415
5.144250e+09 3.313707 129.942105 -73.901723
5.144500e+09 3.590064 130.123853 -75.180390
5.144750e+09 3.610629 130.208993 -74.829100
5.145000e+09 3.565762 130.207454 -73.481183
5.145250e+09 4.173258 130.186923 -73.610265
5.145500e+09 3.540719 130.138516 -73.656831
5.145750e+09 4.123769 130.141136 -72.968030
5.146000e+09 3.855505 130.436702 -72.440206
5.146250e+09 4.465731 130.394309 -71.417718
5.146500e+09 3.846270 130.416662 -71.706395
5.146750e+09 3.821513 130.273239 -75.955283
5.147000e+09 3.886064 130.165300 -77.086418
5.147250e+09 3.672498 130.117112 -76.445159
5.147500e+09 4.142585 130.028902 -78.014407
5.147750e+09 3.902391 129.724392 -77.773101
5.148000e+09 4.309797 130.415762 -75.084356
5.148250e+09 4.429583 130.502644 -75.784498
5.148500e+09 3.762649 130.244228 -73.627235
5.148750e+09 3.976351 130.156499 -76.688440
5.149000e+09 4.222722 129.986447 -76.867981
5.149250e+09 4.796917 130.568420 -76.571259
5.149500e+09 4.182005 130.200286 -73.294842
5.149750e+09 4.563197 130.327448 -75.158452
5.150000e+09 3.802901 130.184017 -75.672760
5.150250e+09 4.017202 130.179180 -77.305668
5.150500e+09 3.924911 130.190091 -74.031648
5.150750e+09 4.316326 130.060831 -75.468895
5.151000e+09 4.011896 129.730020 -76.794554
5.151250e+09 4.362529 130.092335 -77.893795
5.151500e+09 3.800617 130.166219 -75.231022
5.151750e+09 4.041666 130.313207 -73.311082
5.152000e+09 4.124331 130.419363 -72.434544
5.152250e+09 4.471871 130.431000 -71.680081
5.152500e+09 4.730795 130.441744 -72.451556
5.152750e+09 4.271798 130.416344 -72.030048
5.153000e+09 4.435483 130.415092 -75.368237
5.153250e+09 3.894977 130.188620 -76.438995
5.153500e+09 4.157392 130.263722 -78.513485
5.153750e+09 4.425303 130.034024 -77.259265
5.154000e+09 3.833278 130.097602 -75.341621
5.154250e+09 4.172553 130.264009 -78.259052
5.154500e+09 4.406372 130.280850 -79.442754
5.154750e+09 4.138924 129.859949 -76.897568
5.155000e+09 3.890646 129.764048 -80.660230
5.155250e+09 3.978989 129.826235 -76.542770
5.155500e+09 3.860374 130.035890 -77.376006
5.155750e+09 4.016312 130.202508 -76.312336
5.156000e+09 4.503120 130.180086 -75.499705
5.156250e+09 4.575274 130.443357 -73.029423
5.156500e+09 4.689167 130.203515 -75.931317
5.156750e+09 4.227017 130.163006 -74.864484
5.157000e+09 4.166708 130.320436 -74.576672
5.157250e+09 4.454598 130.092068 -80.435799
5.157500e+09 4.110456 130.159419 -75.918105
5.157750e+09 4.175118 130.296215 -75.424989
5.158000e+09 4.752917 130.451105 -73.267476
5.158250e+09 4.748800 130.328364 -74.611107
5.158500e+09 4.639323 130.268647 -79.804670
5.158750e+09 4.256459 130.228260 -76.040299
5.159000e+09 4.253219 130.222097 -78.941901
5.159250e+09 4.226171 130.212531 -79.426444
5.159500e+09 4.540122 130.106182 -81.800749
5.159750e+09 4.566664 130.072205 -77.944101
5.160000e+09 4.657691 130.028208 -78.653991
5.160250e+09 4.110353 130.083195 -76.890194
5.160500e+09 4.508150 130.471881 -77.325250
5.160750e+09 4.473998 130.472732 -78.786281
5.161000e+09 5.109613 130.406913 -75.313271
5.161250e+09 5.096249 130.392332 -78.043479
5.161500e+09 4.828914 130.172794 -78.236715
5.161750e+09 4.176838 129.811166 -82.358530
5.162000e+09 4.319754 130.002039 -77.849923
5.162250e+09 4.658987 130.116632 -77.128955
5.162500e+09 4.325736 130.190760 -79.649266
5.162750e+09 4.449764 130.378353 -78.735370
5.163000e+09 4.798002 130.086731 -82.340095
5.163250e+09 4.418068 130.156995 -77.648626
5.163500e+09 4.424523 130.318541 -77.566394
5.163750e+09 5.209857 130.386501 -79.761716
5.164000e+09 4.709054 129.887686 -81.642606
5.164250e+09 5.130237 130.273501 -80.263966
5.164500e+09 4.611011 129.767213 -81.427747
5.164750e+09 4.229653 129.590100 -84.618748
5.165000e+09 4.798385 130.300535 -77.996754
5.165250e+09 4.649450 130.455017 -80.128443
5.165500e+09 4.800764 130.215070 -77.145831
5.165750e+09 4.819433 130.491645 -79.551756
5.166000e+09 5.212114 130.417755 -76.404242
5.166250e+09 4.875659 130.407769 -75.517573
5.166500e+09 5.156979 130.277009 -79.773047
5.166750e+09 4.714792 130.169905 -78.042666
5.167000e+09 4.517383 130.233990 -79.766323
5.167250e+09 4.660128 130.102191 -83.956589
5.167500e+09 4.645018 129.969160 -85.127153
5.167750e+09 4.440437 130.006662 -80.252731
5.168000e+09 4.413379 129.833530 -83.438734
5.168250e+09 4.661813 129.695625 -85.304817
5.168500e+09 5.278254 130.303434 -81.741360
5.168750e+09 4.610729 130.056811 -83.886693
5.169000e+09 4.534836 130.041493 -84.427750
5.169250e+09 4.730722 129.749613 -84.990914
5.169500e+09 5.517181 130.581239 -83.981295
5.169750e+09 4.682212 130.124431 -84.289018
5.170000e+09 4.845074 129.847011 -85.630729
5.170250e+09 4.809428 130.189439 -84.683538
5.170500e+09 4.880394 129.840041 -85.133074
5.170750e+09 4.279635 129.829339 -81.387447
5.171000e+09 4.790791 130.197127 -78.823072
5.171250e+09 4.822498 130.370872 -78.985927
5.171500e+09 4.858737 130.423011 -80.835453
5.171750e+09 5.011721 130.427467 -78.667208
5.172000e+09 4.927136 130.374527 -82.783602
5.172250e+09 4.826372 130.089977 -85.071454
5.172500e+09 4.573353 130.087559 -82.532934
5.172750e+09 5.041690 130.022992 -84.827551
5.173000e+09 4.741845 129.635183 -86.579612
5.173250e+09 4.424517 129.803301 -86.144981
5.173500e+09 5.506057 130.432292 -84.082223
5.173750e+09 5.095376 129.858462 -85.121331
5.174000e+09 4.551563 129.731779 -85.918851
5.174250e+09 4.599861 129.940314 -82.360110
5.174500e+09 4.891828 129.818365 -84.863730
5.174750e+09 5.428104 130.303058 -82.396503
5.175000e+09 5.229925 130.027875 -85.036863
5.175250e+09 5.074834 130.100309 -82.617916
5.175500e+09 5.009775 130.091053 -84.657107
5.175750e+09 5.122111 130.100955 -83.287115
5.176000e+09 5.201401 130.526330 -83.949099
5.176250e+09 5.044688 130.408256 -84.416513
5.176500e+09 5.274621 130.149050 -83.449838
5.176750e+09 4.989916 130.165512 -82.534017
5.177000e+09 5.328940 130.089191 -84.452080
5.177250e+09 5.125606 129.766429 -85.228176
5.177500e+09 4.706304 129.802737 -84.767926
5.177750e+09 4.723401 129.772470 -86.314241
5.178000e+09 5.321614 130.068722 -85.923885
5.178250e+09 4.986299 129.973409 -83.479643
5.178500e+09 5.045307 130.108866 -85.155704
5.178750e+09 5.163537 130.165668 -83.521126
5.179000e+09 5.405606 130.270867 -82.919955
5.179250e+09 5.298702 130.225885 -85.019373
5.179500e+09 5.368577 130.406832 -82.339382
5.179750e+09 5.234373 130.280413 -84.477450
5.180000e+09 5.359981 129.986521 -87.430717
5.180250e+09 5.174079 130.127563 -84.773676
5.180500e+09 5.299270 130.244862 -86.338752
5.180750e+09 5.200545 130.227852 -84.748661
5.181000e+09 5.504486 130.376610 -86.727949
5.181250e+09 5.429460 130.065433 -88.526665
5.181500e+09 5.310266 130.151709 -88.854461
5.181750e+09 5.170855 129.715792 -89.947476
5.182000e+09 5.717455 130.337851 -87.469734
5.182250e+09 5.742945 130.176584 -87.947660
5.182500e+09 5.868090 130.438055 -84.889021
5.182750e+09 6.019733 130.534330 -83.395150
5.183000e+09 5.683252 130.515995 -87.010133
5.183250e+09 5.507725 130.054698 -88.687106
5.183500e+09 5.363897 130.095515 -89.406198
5.183750e+09 5.227552 130.086790 -88.857610
5.184000e+09 5.366808 129.806922 -89.259660
5.184250e+09 5.287194 129.915473 -86.760392
5.184500e+09 5.574739 130.396657 -84.979007
5.184750e+09 5.817850 130.204991 -86.972305
5.185000e+09 5.573402 129.845857 -89.843345
5.185250e+09 5.945236 130.332728 -86.179048
5.185500e+09 5.646881 130.339113 -85.086182
5.185750e+09 6.043079 130.402832 -85.938355
5.186000e+09 5.873623 130.274128 -85.598801
5.186250e+09 5.868679 130.483968 -83.268861
5.186500e+09 5.471205 130.227923 -86.361531
5.186750e+09 5.879579 130.458098 -83.986779
5.187000e+09 5.484725 130.096457 -88.710668
5.187250e+09 5.694670 130.117170 -87.787261
5.187500e+09 5.355792 129.910135 -89.289572
5.187750e+09 5.121662 129.781828 -89.714800
5.188000e+09 5.484402 129.829370 -89.345109
5.188250e+09 5.564105 130.094604 -87.597309
5.188500e+09 5.610907 130.265563 -86.781938
5.188750e+09 5.884499 130.481509 -84.834010
5.189000e+09 5.805521 130.429445 -85.772405
5.189250e+09 5.883006 130.417302 -86.932357
5.189500e+09 6.195038 130.375030 -88.925726
5.189750e+09 5.854122 130.217448 -90.535437
5.190000e+09 5.590451 130.140854 -89.742811
5.190250e+09 5.969412 130.574635 -90.941724
5.190500e+09 5.838423 130.373278 -87.423518
5.190750e+09 6.245640 130.495098 -86.352324
5.191000e+09 6.254593 130.388392 -92.370017
5.191250e+09 5.761301 130.182453 -89.656863
5.191500e+09 6.241608 130.323680 -89.574002
5.191750e+09 6.357024 130.407373 -87.297762
5.192000e+09 6.465230 130.382199 -87.629602
5.192250e+09 6.246989 130.324427 -90.786211
5.192500e+09 6.246008 130.424957 -88.909823
5.192750e+09 6.081450 130.452711 -88.546790
5.193000e+09 5.999811 130.445185 -87.635523
5.193250e+09 6.175797 130.635134 -91.083574
5.193500e+09 5.920456 130.239766 -90.072278
5.193750e+09 6.160482 130.172738 -89.878476
5.194000e+09 6.331413 130.451914 -87.639794
5.194250e+09 6.527404 130.397623 -87.958133
5.194500e+09 6.160558 130.167336 -91.736658
5.194750e+09 6.502794 130.481283 -87.968916
5.195000e+09 6.481730 130.249403 -89.928680
5.195250e+09 6.194582 130.120494 -92.370530
5.195500e+09 5.990020 130.168019 -92.425064
5.195750e+09 6.110333 130.203596 -90.489668
5.196000e+09 6.319420 130.323496 -92.975686
5.196250e+09 6.292925 130.046282 -92.593515
5.196500e+09 6.267580 130.053563 -91.803077
5.196750e+09 6.156279 130.238526 -90.451125
5.197000e+09 6.007461 130.154014 -92.444003
5.197250e+09 5.805941 129.744960 -95.193844
5.197500e+09 5.674520 129.789761 -93.221364
5.197750e+09 6.119114 130.031164 -95.240266
5.198000e+09 6.147293 130.096922 -92.110633
5.198250e+09 6.130997 130.243240 -91.699425
5.198500e+09 6.281351 130.393968 -92.916188
5.198750e+09 6.289376 130.422702 -91.604812
5.199000e+09 6.366781 130.332449 -93.410299
5.199250e+09 6.491528 130.548719 -90.000704
5.199500e+09 6.711103 130.399565 -90.676880
5.199750e+09 6.519369 130.464667 -91.572364
5.200000e+09 6.162119 130.155348 -94.717219
5.200250e+09 5.829729 129.881067 -94.142477
5.200500e+09 5.798287 129.856598 -94.643855
5.200750e+09 6.012402 130.004914 -95.923230
5.201000e+09 6.222408 130.066285 -93.674381
5.201250e+09 6.316901 129.845101 -95.854603
5.201500e+09 6.246526 129.820462 -94.220771
5.201750e+09 6.079842 129.726827 -96.735036
5.202000e+09 5.946474 129.686270 -97.641732
5.202250e+09 6.566397 130.161097 -96.895459
5.202500e+09 6.446031 129.857964 -97.040089
5.202750e+09 6.376466 129.938070 -94.815968
5.203000e+09 6.695783 130.115716 -94.279229
5.203250e+09 6.355157 130.071617 -95.589277
5.203500e+09 5.994559 129.747047 -97.506855
5.203750e+09 6.072297 129.629835 -99.191984
5.204000e+09 6.900564 130.459856 -92.684043
5.204250e+09 6.770784 130.149212 -95.370285
5.204500e+09 6.906289 130.227262 -94.244194
5.204750e+09 6.774183 130.413530 -93.695544
5.205000e+09 6.613507 130.348608 -94.325927
5.205250e+09 6.542889 130.343660 -94.204455
5.205500e+09 6.817455 130.403559 -94.441062
5.205750e+09 6.746242 130.377353 -93.799601
5.206000e+09 6.868508 130.353804 -95.283465
5.206250e+09 6.655765 130.284855 -95.367923
5.206500e+09 6.512543 130.237425 -95.702055
5.206750e+09 6.593405 130.117737 -98.432893
5.207000e+09 6.484605 130.111712 -97.092848
5.207250e+09 6.498569 129.830683 -98.981741
5.207500e+09 6.385543 129.696726 -100.747686
5.207750e+09 6.922505 130.450113 -95.040344
5.208000e+09 6.787638 130.360146 -95.905654
5.208250e+09 6.812389 130.370631 -94.964387
5.208500e+09 7.041497 130.241646 -96.518989
5.208750e+09 7.057080 130.154820 -96.835140
5.209000e+09 6.585479 129.915410 -98.833347
5.209250e+09 6.625512 129.773653 -98.632720
5.209500e+09 6.534812 129.913058 -96.893115
5.209750e+09 6.882127 130.330943 -95.174410
5.210000e+09 6.908254 130.409592 -95.419058
5.210250e+09 7.244117 130.412330 -97.056421
5.210500e+09 7.097776 130.343120 -95.076476
5.210750e+09 7.516728 130.521474 -97.551488
5.211000e+09 7.071788 130.366621 -95.314756
5.211250e+09 7.107498 130.380855 -96.077733
5.211500e+09 7.111731 130.454871 -96.163153
5.211750e+09 6.869626 130.092197 -100.142703
5.212000e+09 6.642820 129.686298 -102.521739
5.212250e+09 7.300009 130.335859 -99.743036
5.212500e+09 6.845457 130.048362 -100.939871
5.212750e+09 6.680811 129.979141 -101.698243
5.213000e+09 6.595807 129.691083 -103.242049
5.213250e+09 6.564603 129.764053 -100.881522
5.213500e+09 6.703103 129.990391 -100.589801
5.213750e+09 7.062720 130.125070 -102.540568
5.214000e+09 6.768656 129.959430 -101.716096
5.214250e+09 7.173524 130.144669 -102.541574
5.214500e+09 7.082922 130.120169 -99.672795
5.214750e+09 7.572942 130.415671 -98.709240
5.215000e+09 7.681275 130.410183 -99.589859
5.215250e+09 7.367341 130.412223 -100.649359
5.215500e+09 7.307373 130.114893 -100.972084
5.215750e+09 7.360242 130.022405 -102.117849
5.216000e+09 7.119085 129.737184 -102.569569
5.216250e+09 7.485215 130.458034 -98.133462
5.216500e+09 7.300873 130.411230 -99.260602
5.216750e+09 7.690300 130.459614 -103.045539
5.217000e+09 7.173083 130.001459 -103.407487
5.217250e+09 6.759020 129.629679 -104.946768
5.217500e+09 7.496760 130.145126 -102.995416
5.217750e+09 7.309598 130.043698 -104.622083
5.218000e+09 6.829043 129.696158 -105.220141
5.218250e+09 7.787747 130.421016 -101.267109
5.218500e+09 7.645742 130.445267 -102.977063
5.218750e+09 7.577295 130.534639 -103.950645
5.219000e+09 7.455287 130.390667 -101.277984
5.219250e+09 7.333491 130.154332 -103.707329
5.219500e+09 7.177926 130.107727 -103.750367
5.219750e+09 7.210538 129.818174 -104.582349
5.220000e+09 7.378357 130.092141 -102.107655
5.220250e+09 7.423969 130.229228 -103.756657
5.220500e+09 7.433616 129.997847 -104.724089
5.220750e+09 7.304368 130.060536 -103.264931
5.221000e+09 7.204053 129.880121 -105.484361
5.221250e+09 6.970611 129.707753 -106.370989
5.221500e+09 7.728554 130.502703 -104.709005
5.221750e+09 7.289518 129.892124 -105.807720
5.222000e+09 7.176834 129.850826 -103.742265
5.222250e+09 7.202534 129.727425 -106.513825
5.222500e+09 8.206160 130.530344 -106.188544
5.222750e+09 8.005753 130.356735 -104.726873
5.223000e+09 7.463500 129.828938 -107.092630
5.223250e+09 7.858150 130.218338 -105.759001
5.223500e+09 7.562824 130.132972 -104.944745
5.223750e+09 7.714823 130.317379 -102.895865
5.224000e+09 8.058568 130.407117 -102.443113
5.224250e+09 7.766260 130.258598 -106.683056
5.224500e+09 7.630474 130.198756 -103.693009
5.224750e+09 7.926779 130.244609 -104.253771
5.225000e+09 8.098605 130.515986 -105.629099
5.225250e+09 8.041582 130.264033 -103.853660
5.225500e+09 7.746527 130.237722 -104.599709
5.225750e+09 7.553817 130.118154 -105.870065
5.226000e+09 7.957664 130.235332 -105.632729
5.226250e+09 8.082986 130.149461 -105.320815
5.226500e+09 8.154877 130.142092 -105.665527
5.226750e+09 8.138213 130.180963 -104.279967
5.227000e+09 7.950046 130.055603 -107.492122
5.227250e+09 7.703222 130.040890 -106.691173
5.227500e+09 7.959003 130.114664 -105.962648
5.227750e+09 8.096701 130.271122 -104.357077
5.228000e+09 7.845833 130.229494 -105.988946
5.228250e+09 7.639191 130.048549 -107.942098
5.228500e+09 7.339893 129.686562 -110.119240
5.228750e+09 8.088210 130.165981 -108.032570
5.229000e+09 8.274868 130.153871 -107.061278
5.229250e+09 8.481798 130.360965 -105.653900
5.229500e+09 8.036473 130.155385 -108.365758
5.229750e+09 7.773595 130.060445 -108.499350
5.230000e+09 8.126958 130.123568 -107.028174
5.230250e+09 8.358255 130.289951 -105.603399
5.230500e+09 8.407530 130.473548 -107.324224
5.230750e+09 8.173345 130.415696 -106.830711
5.231000e+09 8.450432 130.356988 -108.132030
5.231250e+09 8.305842 130.422825 -104.828595
5.231500e+09 8.489612 130.404464 -105.529831
5.231750e+09 8.233007 130.283177 -106.078403
5.232000e+09 8.484520 130.463515 -103.834187
5.232250e+09 8.272314 130.466552 -105.289500
5.232500e+09 8.371407 130.339545 -105.788418
5.232750e+09 8.397154 130.357506 -107.310487
5.233000e+09 8.534455 130.216313 -109.262058
5.233250e+09 8.606203 130.224655 -109.174268
5.233500e+09 8.008165 130.006036 -111.343614
5.233750e+09 7.920040 129.968355 -109.869782
5.234000e+09 8.284023 130.353967 -108.111066
5.234250e+09 8.457298 130.329782 -109.068842
5.234500e+09 8.393720 130.227510 -111.591650
5.234750e+09 8.340433 129.977446 -112.787665
5.235000e+09 7.894306 129.697726 -114.348899
5.235250e+09 8.559867 130.448752 -110.985269
5.235500e+09 8.488746 130.338252 -110.589061
5.235750e+09 8.728481 130.442750 -108.069937
5.236000e+09 8.702654 130.326928 -108.362317
5.236250e+09 8.690584 130.287002 -110.182787
5.236500e+09 8.398392 124.458644 -108.877428
5.236750e+09 7.774894 129.849235 -113.498562
5.237000e+09 7.974124 129.625579 -114.196728
5.237250e+09 8.297069 130.170537 -112.916246
5.237500e+09 8.090542 130.069674 -112.819160
5.237750e+09 8.417114 130.343308 -111.461768
5.238000e+09 8.443314 130.428384 -109.433241
5.238250e+09 8.739240 130.348441 -110.648344
5.238500e+09 8.683249 130.533105 -113.379069
5.238750e+09 9.139410 130.614160 -113.247971
5.239000e+09 8.987674 130.397564 -111.560688
5.239250e+09 8.820993 130.389249 -111.313679
5.239500e+09 8.763031 130.372227 -111.786703
5.239750e+09 8.647129 130.441800 -112.668479
5.240000e+09 8.693856 130.411604 -112.098535
5.240250e+09 9.048611 130.454777 -110.791374
5.240500e+09 9.026114 130.361093 -111.503699
5.240750e+09 8.964251 130.179768 -114.346934
5.241000e+09 8.420057 130.063626 -115.357323
5.241250e+09 8.173734 129.745473 -117.035814
5.241500e+09 8.532707 129.810110 -116.249930
5.241750e+09 8.817535 129.981974 -115.660019
5.242000e+09 8.301797 129.882148 -115.703666
5.242250e+09 8.430745 130.047410 -115.294051
5.242500e+09 8.491284 130.099132 -114.602643
5.242750e+09 8.319588 129.866512 -117.131316
5.243000e+09 8.362794 129.605368 -118.227073
5.243250e+09 8.992384 130.442789 -112.980649
5.243500e+09 8.454477 130.075422 -116.449484
5.243750e+09 8.886956 130.095657 -115.933038
5.244000e+09 8.869552 130.040025 -117.342044
5.244250e+09 8.734158 129.810739 -118.146822
5.244500e+09 8.272795 129.724165 -118.915781
5.244750e+09 8.901058 130.432937 -115.071660
5.245000e+09 8.901882 130.427545 -114.240216
5.245250e+09 8.873244 130.445703 -117.507856
5.245500e+09 9.066285 130.340112 -114.120654
5.245750e+09 8.977838 130.382322 -114.510124
5.246000e+09 9.263412 130.452633 -113.757610
5.246250e+09 9.135796 130.342609 -119.694653
5.246500e+09 9.130880 130.300519 -118.289441
5.246750e+09 8.797650 130.132729 -117.813324
5.247000e+09 9.014378 130.222989 -115.848852
5.247250e+09 9.077045 130.457002 -114.318520
5.247500e+09 8.961400 130.339531 -117.493029
5.247750e+09 8.991958 130.075125 -119.024240
5.248000e+09 8.973975 130.089728 -117.291002
5.248250e+09 9.232713 130.126114 -118.250434
5.248500e+09 8.995830 130.210127 -119.217372
5.248750e+09 8.892647 130.199901 -120.238974
5.249000e+09 9.159947 130.138828 -117.225378
5.249250e+09 9.710913 130.533437 -119.294536
5.249500e+09 9.636648 130.455924 -115.801657
5.249750e+09 9.782753 130.488646 -116.341626
5.250000e+09 9.564592 130.262971 -117.279724
5.250250e+09 9.732874 130.473530 -119.483636
5.250500e+09 9.651903 130.378668 -117.856160
5.250750e+09 9.310954 130.318845 -119.635922
5.251000e+09 8.705462 129.898821 -121.680828
5.251250e+09 8.531225 129.704629 -123.125524
5.251500e+09 9.204946 130.325439 -120.785377
5.251750e+09 9.961044 130.671296 -121.260447
5.252000e+09 9.650035 130.395969 -122.293701
5.252250e+09 9.590275 130.170935 -120.231010
5.252500e+09 9.410425 130.244460 -119.736698
5.252750e+09 9.091843 129.985183 -122.647188
5.253000e+09 9.028087 129.736470 -123.717262
5.253250e+09 9.275779 129.837652 -122.252849
5.253500e+09 9.659568 130.221377 -123.004894
5.253750e+09 9.204966 130.091917 -124.424035
5.254000e+09 9.375527 130.010965 -123.927464
5.254250e+09 9.371946 130.101706 -122.217726
5.254500e+09 9.496773 130.206084 -120.573928
5.254750e+09 10.050393 130.532738 -121.301846
5.255000e+09 9.753312 130.377993 -121.059669
5.255250e+09 10.147235 130.610069 -119.188675
5.255500e+09 9.899988 130.279989 -120.294298
5.255750e+09 10.211667 130.524899 -123.763853
5.256000e+09 9.921738 130.377421 -122.784671
5.256250e+09 9.593419 130.335766 -122.704132
5.256500e+09 9.893550 130.592739 -124.162050
5.256750e+09 10.038665 130.451304 -119.940969
5.257000e+09 10.073163 130.323427 -122.626581
5.257250e+09 9.534796 130.165158 -124.086128
5.257500e+09 9.311200 129.810558 -125.202637
5.257750e+09 9.191841 129.690556 -127.401666
5.258000e+09 9.505803 129.831789 -126.613978
5.258250e+09 9.800361 130.297184 -125.314923
5.258500e+09 9.853775 130.183977 -123.743131
5.258750e+09 10.153144 130.357310 -122.395451
5.259000e+09 10.233720 130.428738 -126.329536
5.259250e+09 9.996331 130.214805 -123.609974
5.259500e+09 10.090100 130.371516 -124.299093
5.259750e+09 10.217465 130.353301 -123.246037
5.260000e+09 9.695699 130.180268 -126.051772
5.260250e+09 9.886467 130.133780 -125.960699
5.260500e+09 9.974105 130.211527 -124.660882
5.260750e+09 10.232778 130.320358 -123.516465
5.261000e+09 10.440743 130.455904 -126.591641
5.261250e+09 10.040799 130.376382 -124.579738
5.261500e+09 9.768934 130.149494 -127.146219
5.261750e+09 9.993516 130.108132 -127.157440
5.262000e+09 10.507725 130.565419 -124.200526
5.262250e+09 10.180339 130.309728 -127.383421
5.262500e+09 9.873749 130.194702 -127.400009
5.262750e+09 9.584501 129.930454 -129.443133
5.263000e+09 9.780577 129.903591 -129.347352
5.263250e+09 10.016408 130.085400 -129.695530
5.263500e+09 10.029718 130.132328 -130.457725
5.263750e+09 9.996468 130.079750 -130.408561
5.264000e+09 10.174615 130.111682 -129.430444
5.264250e+09 9.690229 129.911263 -130.395285
5.264500e+09 9.353161 129.691702 -131.447930
5.264750e+09 10.317570 130.408207 -127.530156
5.265000e+09 10.145674 130.377044 -127.281977
5.265250e+09 9.688894 129.935545 -129.577633
5.265500e+09 9.961611 129.904436 -128.919046
5.265750e+09 10.527151 130.427597 -127.286761
5.266000e+09 10.689658 130.459897 -130.296276
5.266250e+09 10.632826 130.405656 -129.220175
5.266500e+09 10.471609 130.365945 -129.295363
5.266750e+09 10.274728 130.158053 -130.574607
5.267000e+09 10.592448 130.477371 -127.556879
5.267250e+09 10.079531 129.801454 -131.699311
5.267500e+09 10.590058 130.226812 -128.435965
5.267750e+09 10.766816 130.452438 -126.568185
5.268000e+09 10.098104 130.071044 -130.763949
5.268250e+09 10.406535 130.148544 -128.710983
5.268500e+09 10.913770 130.546155 -129.031525
5.268750e+09 10.377706 130.237168 -130.945430
5.269000e+09 9.739480 129.706883 -132.784643
5.269250e+09 10.218060 130.251906 -131.161763
5.269500e+09 10.064611 130.121433 -131.436895
5.269750e+09 10.467492 130.176224 -129.311026
5.270000e+09 10.513982 130.149653 -130.902567
5.270250e+09 10.737160 130.229934 -130.944272
5.270500e+09 10.795788 130.270284 -130.945262
5.270750e+09 11.083243 130.486273 -132.610568
5.271000e+09 10.965979 130.351256 -129.270231
5.271250e+09 11.052220 130.454044 -129.380903
5.271500e+09 10.342609 130.074728 -133.339109
5.271750e+09 10.519751 130.044609 -132.811388
5.272000e+09 10.641284 130.074040 -133.169445
5.272250e+09 10.739484 130.145051 -131.829364
5.272500e+09 10.822052 130.180043 -132.449217
5.272750e+09 10.401093 130.018396 -135.154260
5.273000e+09 10.312081 129.817820 -135.356524
5.273250e+09 10.375187 129.961340 -135.024797
5.273500e+09 10.444957 129.856963 -134.223513
5.273750e+09 10.760186 130.269139 -134.199618
5.274000e+09 10.756641 130.156410 -134.166104
5.274250e+09 10.507764 130.009727 -136.034852
5.274500e+09 10.664814 130.013845 -135.900464
5.274750e+09 10.478064 130.033608 -136.137726
5.275000e+09 10.863033 130.279797 -133.681717
5.275250e+09 11.161628 130.425120 -133.977726
5.275500e+09 10.865077 130.369854 -132.366365
5.275750e+09 11.066036 130.423451 -131.877589
5.276000e+09 11.093365 130.418781 -134.028778
5.276250e+09 11.145267 130.460228 -131.268838
5.276500e+09 10.918988 130.206982 -133.916583
5.276750e+09 10.822490 130.298971 -135.520788
5.277000e+09 10.339980 129.797943 -137.492053
5.277250e+09 10.781479 130.023912 -135.176134
5.277500e+09 11.035819 130.135613 -135.297694
5.277750e+09 11.447564 130.400292 -133.369349
5.278000e+09 11.197910 130.241215 -135.052153
5.278250e+09 11.058505 130.186988 -134.317683
5.278500e+09 11.000389 130.129252 -135.861680
5.278750e+09 10.583991 129.874389 -137.319441
5.279000e+09 11.173007 130.161109 -135.143658
5.279250e+09 11.188910 130.201099 -137.053907
5.279500e+09 11.032606 130.121253 -136.637934
5.279750e+09 11.516589 130.420420 -134.643791
5.280000e+09 11.484651 130.294051 -135.375332
5.280250e+09 11.188878 130.374158 -135.501959
5.280500e+09 11.089730 130.372716 -134.867073
5.280750e+09 11.079246 130.385315 -134.727046
5.281000e+09 11.233606 130.383823 -136.524128
5.281250e+09 11.704735 130.614292 -136.099868
5.281500e+09 11.556361 130.273932 -136.259898
5.281750e+09 11.164677 130.166985 -139.003480
5.282000e+09 10.960464 130.028394 -138.957700
5.282250e+09 10.573447 129.761996 -140.566554
5.282500e+09 11.039491 129.812276 -139.077234
5.282750e+09 11.066295 130.099936 -140.892679
5.283000e+09 11.470255 130.192676 -138.266168
5.283250e+09 11.588948 130.244735 -138.842144
5.283500e+09 11.330540 130.303741 -140.013441
5.283750e+09 11.731993 130.422470 -137.124224
5.284000e+09 11.259321 130.275866 -140.313252
5.284250e+09 11.333327 130.107586 -138.899330
5.284500e+09 10.938073 129.889672 -141.009680
5.284750e+09 11.266737 129.878406 -138.933999
5.285000e+09 11.400159 130.237721 -139.836131
5.285250e+09 11.818304 130.431978 -138.137975
5.285500e+09 11.324591 130.222228 -141.133661
5.285750e+09 11.616602 130.197107 -139.390464
5.286000e+09 11.441858 130.306357 -141.261374
5.286250e+09 11.037814 130.009206 -142.944879
5.286500e+09 11.516157 130.633923 -142.320541
5.286750e+09 11.627551 130.231375 -141.853218
5.287000e+09 11.191701 130.024664 -143.197241
5.287250e+09 11.175882 129.783225 -143.857539
5.287500e+09 11.389871 129.930638 -142.244743
5.287750e+09 11.374079 129.886818 -143.060268
5.288000e+09 11.142393 129.772382 -143.510753
5.288250e+09 11.787305 130.126871 -141.393710
5.288500e+09 11.563121 130.052453 -143.530527
5.288750e+09 11.598688 130.074432 -142.477161
5.289000e+09 11.667783 130.144362 -143.470825
5.289250e+09 11.284695 129.935950 -144.977965
5.289500e+09 11.592302 129.887041 -142.231329
5.289750e+09 11.865349 130.177515 -142.081010
5.290000e+09 12.106774 130.553893 -144.333288
5.290250e+09 12.183858 130.374779 -142.210549
5.290500e+09 12.050211 130.435931 -140.250257
5.290750e+09 11.635379 130.120036 -145.258536
5.291000e+09 11.090383 129.703083 -146.521759
5.291250e+09 11.476300 129.802835 -144.737815
5.291500e+09 11.537161 130.085201 -145.644659
5.291750e+09 12.301761 130.446833 -142.669754
5.292000e+09 12.084501 130.381805 -144.515606
5.292250e+09 12.368130 130.418845 -140.575488
5.292500e+09 12.521459 130.486642 -145.073295
5.292750e+09 11.732265 130.060531 -145.386402
5.293000e+09 11.305792 129.716094 -147.327659
5.293250e+09 12.114576 130.253521 -144.896721
5.293500e+09 12.474569 130.428760 -142.658341
5.293750e+09 11.910145 130.297339 -147.104573
5.294000e+09 11.897405 129.877926 -145.019785
5.294250e+09 11.624967 129.777029 -147.555051
5.294500e+09 12.063481 130.061236 -145.446286
5.294750e+09 11.991570 130.182006 -147.195478
5.295000e+09 11.750352 129.853122 -147.825444
5.295250e+09 11.950387 129.966287 -148.107038
5.295500e+09 11.830582 129.887674 -148.582580
5.295750e+09 11.444104 129.689731 -149.654644
5.296000e+09 11.936027 129.852367 -146.010139
5.296250e+09 12.430885 130.157614 -145.361772
5.296500e+09 12.020817 130.128583 -147.800225
5.296750e+09 11.548943 129.704249 -148.703212
5.297000e+09 12.040539 130.189488 -147.282414
5.297250e+09 12.170541 130.106467 -146.751749
5.297500e+09 12.065651 130.165479 -148.275848
5.297750e+09 11.910394 129.993925 -148.544700
5.298000e+09 11.576850 129.667517 -149.063612
5.298250e+09 12.637206 130.414819 -147.714346
5.298500e+09 12.206781 130.203210 -148.511360
5.298750e+09 12.078609 130.050830 -149.395369
5.299000e+09 12.156349 129.951012 -148.793513
5.299250e+09 12.686360 130.262697 -146.510882
5.299500e+09 12.923676 130.448285 -146.528131
5.299750e+09 12.630241 130.425406 -149.466940
5.300000e+09 12.307528 130.152555 -148.979737
5.300250e+09 12.132890 130.094179 -149.809715
5.300500e+09 12.317274 129.956344 -148.717479
5.300750e+09 12.130284 129.920421 -150.506447
5.301000e+09 11.783394 129.713100 -151.779234
5.301250e+09 12.896757 130.453430 -145.166256
5.301500e+09 12.216142 130.045627 -150.396384
5.301750e+09 11.833919 129.701941 -151.745179
5.302000e+09 12.905413 130.403418 -146.965588
5.302250e+09 12.812255 130.376911 -147.072717
5.302500e+09 12.659752 130.261691 -147.965721
5.302750e+09 12.297659 130.037619 -149.891572
5.303000e+09 12.319772 130.103065 -150.947418
5.303250e+09 12.261421 130.064312 -151.434221
5.303500e+09 12.442492 129.867896 -149.682514
5.303750e+09 12.249468 129.800661 -151.574401
5.304000e+09 12.493385 129.812568 -150.033690
5.304250e+09 13.229476 130.441496 -148.069122
5.304500e+09 13.148854 130.455787 -146.411174
5.304750e+09 13.220603 130.574586 -150.736797
5.305000e+09 12.881291 130.459654 -145.872781
5.305250e+09 12.627451 130.105729 -151.049004
5.305500e+09 12.764989 130.084157 -150.339549
5.305750e+09 13.261822 130.478500 -147.126847
5.306000e+09 13.576779 130.611916 -146.527728
5.306250e+09 12.891810 130.170765 -150.685302
5.306500e+09 13.150860 130.365819 -149.231407
5.306750e+09 12.722326 130.138027 -150.895835
5.307000e+09 12.700069 130.064830 -152.316467
5.307250e+09 13.288348 130.374854 -150.064367
5.307500e+09 13.465019 130.414094 -151.230924
5.307750e+09 13.494704 130.385581 -152.225696
5.308000e+09 13.596295 130.456313 -153.007197
5.308250e+09 13.358620 130.282641 -151.132143
5.308500e+09 13.293624 130.452514 -148.850767
5.308750e+09 13.192903 130.251859 -151.269048
5.309000e+09 13.054058 130.203558 -152.244223
5.309250e+09 12.635170 129.983084 -153.707967
5.309500e+09 12.598002 129.746953 -153.344226
5.309750e+09 13.304015 130.234908 -151.796027
5.310000e+09 13.057439 130.138550 -152.832462
5.310250e+09 13.199064 130.371296 -152.909827
5.310500e+09 13.234453 130.408049 -152.892561
5.310750e+09 12.906841 130.133126 -153.910480
5.311000e+09 13.304097 130.237007 -151.838135
5.311250e+09 13.154688 130.183644 -153.677262
5.311500e+09 13.094199 130.279053 -154.914915
5.311750e+09 13.458449 130.331689 -153.332744
5.312000e+09 13.739448 130.486724 -155.090512
5.312250e+09 13.400197 130.407828 -152.628197
5.312500e+09 13.516994 130.381409 -151.751456
5.312750e+09 13.816569 130.494031 -150.324768
5.313000e+09 13.064776 130.041942 -155.832005
5.313250e+09 12.610602 129.726527 -157.163389
5.313500e+09 13.557219 130.331332 -152.767640
5.313750e+09 13.518364 130.410306 -151.533924
5.314000e+09 13.114607 130.109149 -155.746426
5.314250e+09 13.140237 130.033015 -156.068432
5.314500e+09 13.134962 130.133245 -156.207703
5.314750e+09 12.705040 129.736912 -156.985409
5.315000e+09 13.337753 130.381061 -152.994272
5.315250e+09 13.604452 130.428610 -153.249897
5.315500e+09 13.691260 130.283732 -154.552636
5.315750e+09 13.690282 130.378877 -152.608046
5.316000e+09 13.984261 130.510435 -152.224858
5.316250e+09 13.789646 130.316470 -153.843041
5.316500e+09 13.576873 130.345622 -153.312805
5.316750e+09 13.803785 130.372177 -152.926365
5.317000e+09 13.669499 130.355319 -152.065900
5.317250e+09 13.895673 130.407484 -156.765011
5.317500e+09 13.866385 130.252725 -154.289691
5.317750e+09 14.027101 130.316811 -155.625820
5.318000e+09 14.008834 130.397430 -153.484118
5.318250e+09 14.040380 130.308983 -154.518765
5.318500e+09 14.101444 130.429418 -155.101016
5.318750e+09 13.776010 130.312143 -155.436389
5.319000e+09 14.285626 130.561252 -153.330890
5.319250e+09 13.499420 130.086876 -156.929703
5.319500e+09 13.858156 130.317098 -156.163855
5.319750e+09 13.850977 130.462383 -153.214007
5.320000e+09 13.418840 130.093710 -157.469282
5.320250e+09 13.256299 129.982812 -158.792804
5.320500e+09 13.406941 130.114145 -159.099355
5.320750e+09 13.332907 129.993712 -159.373749
5.321000e+09 13.334829 130.028866 -159.269042
5.321250e+09 13.077892 129.674220 -159.936762
5.321500e+09 13.968010 130.285464 -156.253930
5.321750e+09 13.857175 130.351071 -156.806547
5.322000e+09 14.416331 130.626112 -157.352481
5.322250e+09 14.402957 130.469577 -154.599291
5.322500e+09 14.427956 130.406547 -156.430857
5.322750e+09 14.374243 130.345100 -156.915551
5.323000e+09 14.362858 130.294713 -157.513988
5.323250e+09 14.033979 130.330482 -156.449675
5.323500e+09 13.923799 130.198444 -157.584427
5.323750e+09 13.816538 130.208647 -159.015328
5.324000e+09 13.621478 130.025003 -159.762735
5.324250e+09 13.736033 129.970893 -158.348109
5.324500e+09 13.905226 130.137923 -158.948646
5.324750e+09 14.033231 130.057423 -156.990439
5.325000e+09 14.787442 130.596058 -158.903366
5.325250e+09 14.221118 130.238871 -156.966544
5.325500e+09 14.546758 130.349344 -155.021317
5.325750e+09 14.608928 130.435696 -154.720613
5.326000e+09 14.430183 130.301806 -157.645961
5.326250e+09 14.301464 130.177079 -156.705786
5.326500e+09 14.530139 130.366542 -156.406631
5.326750e+09 14.217019 130.403347 -159.492262
5.327000e+09 14.304130 130.250227 -157.488897
5.327250e+09 14.642336 130.407848 -155.483048
5.327500e+09 14.640242 130.385147 -156.794176
5.327750e+09 14.602730 130.265334 -158.307179
5.328000e+09 14.934125 130.546247 -157.319305
5.328250e+09 14.776805 130.387296 -157.043921
5.328500e+09 14.927082 130.660676 -160.604391
5.328750e+09 14.156913 130.150377 -160.971355
5.329000e+09 13.776513 129.864610 -162.032599
5.329250e+09 13.591722 129.650417 -162.357457
5.329500e+09 13.695932 129.675463 -161.481187
5.329750e+09 14.670221 130.369226 -158.466314
5.330000e+09 14.599392 130.484492 -161.192158
5.330250e+09 15.110743 130.679981 -160.606044
5.330500e+09 14.394087 130.277247 -159.362570
5.330750e+09 14.562008 130.262304 -159.255822
5.331000e+09 14.568154 130.452726 -156.485996
5.331250e+09 14.916591 130.516674 -160.760855
5.331500e+09 14.958082 130.400176 -156.379749
5.331750e+09 14.840740 130.365669 -156.879726
5.332000e+09 14.226943 130.125458 -161.079385
5.332250e+09 14.939157 130.461696 -158.101424
5.332500e+09 14.804240 130.404075 -157.927137
5.332750e+09 14.768147 130.320733 -159.702362
5.333000e+09 14.248033 130.113718 -160.993408
5.333250e+09 13.809408 129.786310 -162.934456
5.333500e+09 14.230932 130.038196 -162.205190
5.333750e+09 13.967939 129.798184 -163.085771
5.334000e+09 14.116465 129.769157 -161.956924
5.334250e+09 14.451263 129.877334 -160.200278
5.334500e+09 14.862829 130.225887 -159.757541
5.334750e+09 14.904510 130.513694 -161.524309
5.335000e+09 14.886719 130.484144 -160.087620
5.335250e+09 15.011359 130.336274 -158.795810
5.335500e+09 14.713896 130.330441 -159.837046
5.335750e+09 14.748464 130.443888 -157.555418
5.336000e+09 14.389697 130.183367 -161.126346
5.336250e+09 14.174327 130.005088 -162.978696
5.336500e+09 14.222956 130.029354 -163.740861
5.336750e+09 13.928129 129.712382 -163.704165
5.337000e+09 15.029333 130.362574 -163.176293
5.337250e+09 14.425379 130.047039 -163.291930
5.337500e+09 13.877366 129.615367 -164.188836
5.337750e+09 14.287391 129.903398 -163.510822
5.338000e+09 14.275806 129.979076 -164.300622
5.338250e+09 14.901192 130.278499 -162.103930
5.338500e+09 15.144744 130.382616 -162.701117
5.338750e+09 15.124464 130.288911 -162.180575
5.339000e+09 14.972613 130.174052 -162.138543
5.339250e+09 14.570527 130.104890 -163.285005
5.339500e+09 15.074298 130.294504 -161.979645
5.339750e+09 14.882060 130.228143 -161.292986
5.340000e+09 15.148403 130.404962 -163.859367
5.340250e+09 15.382886 130.401729 -159.471965
5.340500e+09 14.700422 130.040965 -164.448403
5.340750e+09 14.979294 130.204949 -162.966037
5.341000e+09 14.603855 130.071820 -162.935752
5.341250e+09 14.558482 129.876863 -163.763957
5.341500e+09 14.535960 129.924256 -163.681577
5.341750e+09 14.764563 129.908982 -163.692800
5.342000e+09 15.019719 130.109300 -162.200860
5.342250e+09 15.309816 130.382960 -160.896110
5.342500e+09 14.216285 129.589402 -165.673095
5.342750e+09 14.876080 130.164518 -163.821215
5.343000e+09 14.757190 129.946999 -164.690424
5.343250e+09 14.409306 129.808417 -165.576476
5.343500e+09 14.358318 129.760284 -165.029111
5.343750e+09 14.660857 129.862163 -165.300137
5.344000e+09 14.359193 129.571519 -165.933881
5.344250e+09 15.464360 130.374286 -162.432016
5.344500e+09 15.579828 130.539010 -160.613320
5.344750e+09 14.301813 129.515219 -166.920955
5.345000e+09 15.127444 130.152487 -164.179221
5.345250e+09 14.566320 129.843748 -165.123954
5.345500e+09 14.395718 129.691587 -166.795460
5.345750e+09 14.425614 129.535455 -166.769249
5.346000e+09 14.744430 129.840781 -164.780336
5.346250e+09 15.567954 130.396052 -162.373133
5.346500e+09 14.793573 129.775056 -167.100696
5.346750e+09 14.622266 129.774321 -167.557805
5.347000e+09 14.632288 129.739762 -167.124516
5.347250e+09 14.965464 129.857924 -165.097071
5.347500e+09 14.635574 129.702241 -164.419693
5.347750e+09 15.527802 130.316540 -163.162006
5.348000e+09 15.464071 130.334479 -163.144841
5.348250e+09 15.484074 130.263192 -163.392254
5.348500e+09 15.354274 130.451812 -164.093599
5.348750e+09 14.894580 130.095515 -165.520395
5.349000e+09 15.365722 130.382573 -164.938480
5.349250e+09 15.290164 130.255518 -163.532429
5.349500e+09 15.364281 130.394174 -164.867987
5.349750e+09 14.937531 130.031987 -166.288095
5.350000e+09 15.671056 130.401870 -168.833865
5.350250e+09 14.939315 129.616549 -168.361996
5.350500e+09 15.116863 130.065159 -167.285830
5.350750e+09 14.810652 129.483956 -169.095384
5.351000e+09 14.873851 129.582602 -167.459016
5.351250e+09 15.653160 130.215312 -165.856251
5.351500e+09 15.862906 130.456662 -166.735298
5.351750e+09 15.308667 129.812808 -166.673717
5.352000e+09 15.238018 130.017108 -166.321243
5.352250e+09 15.442231 130.002374 -166.133971
5.352500e+09 15.007096 129.915305 -168.375816
5.352750e+09 14.899497 129.897479 -167.990617
5.353000e+09 14.628818 129.626804 -169.684120
5.353250e+09 15.379505 129.994345 -167.413555
5.353500e+09 15.096645 129.973360 -167.852989
5.353750e+09 14.713804 129.695805 -169.713253
5.354000e+09 14.910734 129.526109 -168.244446
5.354250e+09 14.540345 129.335109 -170.039586
5.354500e+09 14.687093 129.593559 -170.191384
5.354750e+09 14.549947 129.487241 -170.247109
5.355000e+09 14.444961 129.476068 -169.894116
5.355250e+09 15.241532 129.926010 -167.381946
5.355500e+09 15.241190 129.684855 -166.115838
5.355750e+09 14.838794 129.639389 -169.246593
5.356000e+09 15.125257 129.848417 -169.490548
5.356250e+09 14.858345 129.663687 -168.705199
5.356500e+09 15.460078 129.989430 -168.216690
5.356750e+09 14.846761 129.560221 -168.297098
5.357000e+09 15.077606 129.729773 -168.257532
5.357250e+09 15.259035 129.650179 -167.473662
5.357500e+09 15.034216 129.770495 -170.455176
5.357750e+09 14.966745 129.682365 -170.849594
5.358000e+09 15.625035 130.035983 -168.132013
5.358250e+09 15.577976 130.212222 -168.257911
5.358500e+09 14.955534 129.776700 -170.835327
5.358750e+09 15.700367 130.214471 -168.490515
5.359000e+09 15.278229 129.898691 -170.177382
5.359250e+09 15.335987 130.000327 -169.008282
5.359500e+09 15.390455 129.997449 -168.745832
5.359750e+09 14.945269 129.535482 -171.004341
5.360000e+09 15.700911 130.120313 -168.957569
5.360250e+09 15.807513 130.103637 -168.426282
5.360500e+09 16.032227 130.252862 -167.940147
5.360750e+09 15.300497 129.783383 -168.979192
5.361000e+09 15.106385 129.838300 -171.110690
5.361250e+09 15.536345 130.159907 -169.649988
5.361500e+09 15.873205 130.166186 -168.884436
5.361750e+09 15.580250 130.186495 -170.963460
5.362000e+09 14.752714 129.499362 -172.513362
5.362250e+09 14.863742 129.486385 -172.495167
5.362500e+09 15.559981 129.863711 -169.858895
5.362750e+09 15.113611 129.709647 -171.208768
5.363000e+09 14.965411 129.503702 -171.788998
5.363250e+09 15.360881 129.671599 -169.770767
5.363500e+09 15.959732 130.157743 -169.103297
5.363750e+09 15.637547 129.968315 -169.109806
5.364000e+09 15.733122 129.893118 -169.174682
5.364250e+09 15.204699 129.734283 -171.842451
5.364500e+09 15.388986 129.663239 -170.652595
5.364750e+09 15.266707 129.665244 -169.835651
5.365000e+09 15.614320 129.793177 -169.530062
5.365250e+09 15.389594 129.807090 -170.656362
5.365500e+09 15.620363 129.948568 -169.967601
5.365750e+09 15.447061 129.951700 -171.572627
5.366000e+09 15.668086 130.232652 -171.285021
5.366250e+09 14.727900 129.372251 -173.707955
5.366500e+09 15.400581 129.651190 -171.684107
5.366750e+09 15.471462 129.735738 -172.145989
5.367000e+09 15.180797 129.439545 -170.102163
5.367250e+09 15.403762 129.593053 -171.224057
5.367500e+09 15.275216 129.722284 -172.730396
5.367750e+09 15.078594 129.614102 -171.907614
5.368000e+09 15.138752 129.555260 -170.388394
5.368250e+09 14.996934 129.451416 -170.961289
5.368500e+09 14.726784 129.290463 -173.450816
5.368750e+09 15.060149 129.658824 -173.856605
5.369000e+09 15.334264 129.638408 -172.756814
5.369250e+09 15.853714 129.947898 -170.920185
5.369500e+09 14.995466 129.372031 -171.980204
5.369750e+09 15.265685 129.678951 -173.018649
5.370000e+09 15.504686 129.710975 -170.570374
5.370250e+09 15.435002 129.514041 -170.671864
5.370500e+09 16.133870 130.106737 -170.255738
5.370750e+09 15.579237 129.876863 -172.477413
5.371000e+09 15.344685 129.606081 -170.991243
5.371250e+09 15.744479 130.173926 -172.523132
5.371500e+09 15.535855 130.083345 -173.293453
5.371750e+09 15.213740 129.436216 -172.980412
5.372000e+09 14.986966 129.341824 -173.634055
5.372250e+09 15.039688 129.239989 -172.959338
5.372500e+09 15.315337 129.419035 -172.437438
5.372750e+09 15.721743 129.692491 -170.527657
5.373000e+09 16.016349 130.115715 -170.067004
5.373250e+09 15.316423 129.631578 -171.965154
5.373500e+09 15.184430 129.357691 -172.849652
5.373750e+09 15.787805 129.800941 -172.164124
5.374000e+09 15.790412 129.869988 -170.725376
5.374250e+09 15.424030 129.466896 -169.785584
5.374500e+09 15.002617 129.301577 -172.889213
5.374750e+09 15.607205 129.677539 -173.129048
5.375000e+09 15.485385 129.775911 -173.882453
5.375250e+09 15.891546 130.060932 -171.180703
5.375500e+09 15.815489 130.118662 -173.143299
5.375750e+09 14.976944 129.395741 -174.602449
5.376000e+09 14.956338 129.292313 -174.768573
5.376250e+09 15.838387 129.932766 -171.056045
5.376500e+09 15.324346 129.483901 -171.295829
5.376750e+09 15.255499 129.514490 -173.697087
5.377000e+09 15.336643 129.385930 -171.145325
5.377250e+09 15.928671 129.971956 -171.095546
5.377500e+09 15.371702 129.283092 -173.587583
5.377750e+09 16.018829 129.884731 -172.288239
5.378000e+09 15.261224 129.465013 -173.648525
5.378250e+09 15.879015 129.827983 -172.574364
5.378500e+09 16.147120 130.004817 -171.378129
5.378750e+09 15.457888 129.557455 -171.789410
5.379000e+09 15.508252 129.762336 -173.238131
5.379250e+09 15.710879 129.684644 -173.095492
5.379500e+09 15.338989 129.373934 -174.184373
5.379750e+09 16.255820 130.105364 -171.806787
5.380000e+09 15.590495 129.561663 -170.909012
5.380250e+09 15.835370 129.850931 -171.461111
5.380500e+09 16.193773 130.032261 -172.596957
5.380750e+09 15.751959 129.688407 -173.969359
5.381000e+09 15.986615 129.904062 -171.765501
5.381250e+09 16.343830 130.144264 -171.536058
5.381500e+09 15.823171 129.576779 -171.770913
5.381750e+09 16.032893 129.842775 -173.457749
5.382000e+09 16.105428 129.841802 -172.745234
5.382250e+09 15.536928 129.450664 -174.166787
5.382500e+09 15.815250 129.731366 -173.654309
5.382750e+09 15.933336 130.048648 -173.220072
5.383000e+09 16.042096 129.943626 -171.687390
5.383250e+09 15.880788 129.943145 -173.537118
5.383500e+09 15.797417 129.629461 -173.410502
5.383750e+09 15.180813 129.243093 -174.556344
5.384000e+09 15.277239 129.337763 -174.500995
5.384250e+09 15.166398 129.304937 -174.638043
5.384500e+09 15.303832 129.536774 -174.147481
5.384750e+09 15.218160 129.409878 -174.688578
5.385000e+09 15.673254 129.582812 -173.540462
5.385250e+09 15.320818 129.466076 -173.683563
5.385500e+09 15.526199 129.640515 -172.293175
5.385750e+09 16.074311 129.918323 -172.349934
5.386000e+09 15.582298 129.295982 -173.401452
5.386250e+09 15.445980 129.492703 -173.623418
5.386500e+09 15.907252 129.771859 -172.137684
5.386750e+09 16.324177 130.106306 -171.774718
5.387000e+09 15.480022 129.424144 -174.802805
5.387250e+09 16.054021 129.968903 -172.764343
5.387500e+09 15.810848 129.670303 -172.035356
5.387750e+09 16.151775 130.210775 -174.498870
5.388000e+09 16.009907 129.856655 -174.557424
5.388250e+09 16.086273 130.069070 -173.184719
5.388500e+09 15.637629 129.466677 -173.076462
5.388750e+09 16.042341 129.932190 -172.709997
5.389000e+09 16.149987 129.878701 -173.017842
5.389250e+09 15.706310 129.497790 -172.248650
5.389500e+09 16.122053 130.068853 -173.225747
5.389750e+09 15.541857 129.419748 -172.540349
5.390000e+09 16.264817 130.091457 -172.709817
5.390250e+09 15.642339 129.287103 -174.500554
5.390500e+09 16.005328 129.976492 -174.734250
5.390750e+09 16.189094 130.031908 -173.601649
5.391000e+09 16.033946 129.818751 -172.857860
5.391250e+09 15.914335 129.653122 -172.794429
5.391500e+09 15.188454 129.237790 -176.011628
5.391750e+09 15.793091 129.845594 -176.292932
5.392000e+09 16.168524 130.044912 -173.154775
5.392250e+09 15.202299 129.235845 -175.786418
5.392500e+09 15.273658 129.396328 -176.329355
5.392750e+09 15.453832 129.367413 -175.690912
5.393000e+09 15.885986 129.657033 -174.038370
5.393250e+09 16.339716 130.017473 -172.628207
5.393500e+09 16.298405 130.017099 -173.930384
5.393750e+09 16.244006 129.931213 -172.691651
5.394000e+09 16.312199 129.886832 -173.539019
5.394250e+09 15.551916 129.231340 -171.927361
5.394500e+09 16.108838 129.852683 -172.390452
5.394750e+09 16.044530 129.217970 -175.080881
5.395000e+09 16.238269 129.948347 -173.552295
5.395250e+09 16.351124 129.979453 -173.522146
5.395500e+09 16.048019 129.825750 -172.838138
5.395750e+09 16.131746 129.835264 -174.256490
5.396000e+09 15.199735 129.129690 -176.139140
5.396250e+09 15.258914 129.292286 -174.441518
5.396500e+09 15.690590 129.627641 -173.317044
5.396750e+09 15.445967 129.337904 -172.892339
5.397000e+09 15.791227 129.511043 -173.554629
5.397250e+09 15.845940 129.594977 -173.401328
5.397500e+09 15.757413 129.527318 -173.381392
5.397750e+09 15.558520 129.423841 -173.987414
5.398000e+09 15.583632 129.262079 -174.305104
5.398250e+09 15.949788 129.868873 -174.966227
5.398500e+09 15.821321 129.641651 -173.922317
5.398750e+09 16.390764 130.088453 -174.954315
5.399000e+09 15.927619 129.520977 -174.858859
5.399250e+09 16.207305 129.770303 -174.165247
5.399500e+09 15.439416 129.392069 -176.091475
5.399750e+09 15.749201 129.527995 -175.354502
5.400000e+09 16.105894 130.002853 -174.182944
5.400250e+09 15.900471 129.655102 -173.269168
5.400500e+09 16.153710 129.873948 -173.267504
5.400750e+09 15.812298 129.774167 -175.119986
5.401000e+09 15.119655 129.232425 -176.231621
5.401250e+09 15.359661 129.541980 -175.951978
5.401500e+09 15.688307 129.534345 -174.413801
5.401750e+09 15.656033 129.642482 -175.264512
5.402000e+09 16.028673 129.823575 -174.277365
5.402250e+09 15.137499 129.105639 -177.100538
5.402500e+09 15.865599 129.808196 -174.880571
5.402750e+09 15.158076 129.247126 -176.705010
5.403000e+09 15.576855 129.709626 -175.887761
5.403250e+09 15.126141 129.244061 -175.380842
5.403500e+09 15.768948 129.924325 -175.801004
5.403750e+09 15.289397 129.295757 -174.466714
5.404000e+09 15.733390 129.697388 -174.599237
5.404250e+09 15.843341 129.592785 -175.022931
5.404500e+09 15.641156 129.248627 -175.427105
5.404750e+09 16.030308 129.881623 -176.656320
5.405000e+09 15.491593 129.382875 -174.435034
5.405250e+09 15.741498 129.468635 -173.824419
5.405500e+09 15.753703 129.476105 -173.622492
5.405750e+09 15.485236 129.420803 -175.135715
5.406000e+09 16.027097 129.859934 -176.408932
5.406250e+09 15.613875 129.355410 -175.842413
5.406500e+09 15.682945 129.393626 -176.540949
5.406750e+09 15.955726 129.625779 -174.266736
5.407000e+09 15.709803 129.341394 -173.529950
5.407250e+09 15.259427 129.200081 -175.629380
5.407500e+09 15.727837 129.849376 -175.965489
5.407750e+09 15.748285 129.584679 -174.807104
5.408000e+09 15.793159 129.653709 -176.458084
5.408250e+09 15.036404 129.083721 -176.710719
5.408500e+09 15.422655 129.221069 -175.213545
5.408750e+09 15.601830 129.565814 -174.815747
5.409000e+09 15.830503 129.585943 -175.463106
5.409250e+09 15.035206 129.068904 -176.378725
5.409500e+09 15.786202 129.890812 -175.504029
5.409750e+09 15.418763 129.242678 -175.008918
5.410000e+09 15.064631 129.125977 -176.454605
5.410250e+09 15.375839 129.535343 -176.172519
5.410500e+09 15.674832 129.508475 -175.520502
5.410750e+09 15.924113 129.910432 -175.154538
5.411000e+09 15.669652 129.598248 -174.313321
5.411250e+09 15.398637 129.439999 -175.511042
5.411500e+09 15.400186 129.568049 -176.567614
5.411750e+09 15.286927 129.357883 -175.360545
5.412000e+09 15.949648 129.810269 -174.597578
5.412250e+09 15.820758 129.839491 -175.846417
5.412500e+09 16.045721 129.873150 -175.776933
5.412750e+09 15.030808 129.063013 -177.810216
5.413000e+09 15.313988 129.430350 -178.071595
5.413250e+09 15.381277 129.197302 -176.402305
5.413500e+09 16.194044 129.932845 -175.363639
5.413750e+09 16.204174 129.873897 -174.591443
5.414000e+09 16.100178 129.710415 -174.607840
5.414250e+09 15.349980 129.363996 -176.061264
5.414500e+09 15.146456 129.259193 -175.266896
5.414750e+09 15.416849 129.614636 -177.240949
5.415000e+09 15.572663 129.854828 -176.771279
5.415250e+09 15.465500 129.476703 -174.778578
5.415500e+09 15.883504 129.790178 -174.434378
5.415750e+09 15.114882 129.242117 -176.584475
5.416000e+09 14.917145 129.040025 -178.326982
5.416250e+09 15.568088 129.766250 -176.719581
5.416500e+09 15.959919 129.940110 -174.987302
5.416750e+09 15.128045 129.267319 -176.879988
5.417000e+09 15.599672 129.797638 -177.602783
5.417250e+09 15.448773 129.388034 -175.218229
5.417500e+09 15.113639 129.218092 -175.768961
5.417750e+09 15.009124 129.201306 -176.241667
5.418000e+09 15.296207 129.594509 -177.152709
5.418250e+09 14.789588 129.070818 -178.126696
5.418500e+09 15.613925 129.776176 -176.084206
5.418750e+09 15.234020 129.475092 -177.416825
5.419000e+09 14.942135 129.163034 -176.138216
5.419250e+09 15.608949 129.792243 -176.111114
5.419500e+09 15.659638 129.892718 -176.641474
5.419750e+09 15.580107 129.598443 -177.174488
5.420000e+09 15.129147 129.158809 -178.049133
5.420250e+09 15.133753 129.099899 -177.885468
5.420500e+09 15.381406 129.326804 -175.077601
5.420750e+09 16.051482 129.948199 -174.550061
5.421000e+09 15.680827 129.597429 -174.933868
5.421250e+09 15.387251 129.266346 -174.871635
5.421500e+09 15.513119 129.303483 -176.503851
5.421750e+09 15.124664 129.227351 -176.645669
5.422000e+09 15.878748 129.771742 -175.414196
5.422250e+09 15.431903 129.255828 -177.633916
5.422500e+09 15.390657 129.165943 -176.056811
5.422750e+09 14.956195 129.103897 -177.220200
5.423000e+09 15.764500 129.801158 -175.169119
5.423250e+09 15.875983 129.819410 -174.867600
5.423500e+09 15.656781 129.559176 -177.438464
5.423750e+09 15.411475 129.224751 -176.615657
5.424000e+09 15.822078 129.983288 -177.120378
5.424250e+09 15.711534 129.684645 -175.197414
5.424500e+09 15.183699 129.200698 -174.818320
5.424750e+09 15.817089 129.751543 -176.999239
5.425000e+09 15.713377 129.874238 -176.724804
5.425250e+09 15.626259 129.647937 -177.155800
5.425500e+09 14.858416 129.040227 -178.050405
5.425750e+09 15.422517 129.384672 -175.694229
5.426000e+09 15.713097 129.559586 -174.928823
5.426250e+09 15.832426 129.661664 -175.257079
5.426500e+09 15.662335 129.791175 -176.494397
5.426750e+09 14.793844 129.021357 -178.704046
5.427000e+09 15.543167 129.483519 -176.726567
5.427250e+09 15.240834 129.229856 -177.741184
5.427500e+09 15.313808 129.254503 -175.200888
5.427750e+09 15.730684 129.587547 -174.783863
5.428000e+09 15.554480 129.746925 -176.591937
5.428250e+09 15.020295 129.199576 -175.898886
5.428500e+09 15.936681 130.027835 -176.631969
5.428750e+09 15.773270 129.641640 -177.706251
5.429000e+09 14.902659 129.008108 -178.651162
5.429250e+09 15.235936 129.205525 -176.816247
5.429500e+09 14.935475 129.141436 -177.548111
5.429750e+09 15.241875 129.242372 -175.940113
5.430000e+09 15.400729 129.301252 -174.986329
5.430250e+09 15.871604 129.744607 -175.577169
5.430500e+09 15.209444 129.472446 -177.444108
5.430750e+09 15.414250 129.804663 -177.272865
5.431000e+09 15.405782 129.491499 -176.171978
5.431250e+09 15.279494 129.262534 -175.317766
5.431500e+09 15.102494 129.348356 -176.799097
5.431750e+09 15.063304 129.247378 -175.949006
5.432000e+09 15.397128 129.463158 -175.970055
5.432250e+09 15.473836 129.719878 -176.954819
5.432500e+09 15.517617 129.752753 -176.915060
5.432750e+09 15.686933 129.717593 -177.465740
5.433000e+09 15.735031 129.729439 -176.365419
5.433250e+09 15.121607 129.343180 -177.000527
5.433500e+09 15.698350 129.870698 -178.913609
5.433750e+09 15.811902 129.918370 -176.976345
5.434000e+09 15.488724 129.568106 -178.056232
5.434250e+09 14.744151 129.089704 -178.563273
5.434500e+09 14.908810 129.089197 -178.795803
5.434750e+09 15.312840 129.355695 -175.797285
5.435000e+09 15.463166 129.808521 -178.083200
5.435250e+09 15.606202 129.833089 -176.404524
5.435500e+09 15.391418 129.642947 -176.502328
5.435750e+09 15.282168 129.555574 -176.461223
5.436000e+09 15.720367 129.836498 -178.507633
5.436250e+09 14.668527 129.014709 -179.617449
5.436500e+09 14.762793 129.041229 -179.424675
5.436750e+09 15.279752 129.579119 -176.770050
5.437000e+09 15.217498 129.622553 -176.680002
5.437250e+09 15.204533 129.336677 -177.425056
5.437500e+09 15.221600 129.410753 -176.361663
5.437750e+09 15.718421 129.765392 -177.370701
5.438000e+09 14.737660 129.010364 -179.522433
5.438250e+09 15.309909 129.754991 -177.704302
5.438500e+09 15.244445 129.312409 -178.232229
5.438750e+09 14.934370 129.105019 -178.522589
5.439000e+09 15.733403 129.799716 -177.071327
5.439250e+09 15.057856 129.345409 -176.598751
5.439500e+09 14.807134 129.027059 -179.239836
5.439750e+09 15.634134 129.861481 -176.536442
5.440000e+09 14.600200 129.086570 -178.969232
5.440250e+09 15.158060 129.408578 -178.421618
5.440500e+09 15.222905 129.728940 -178.036836
5.440750e+09 14.477570 129.009266 -179.796895
5.441000e+09 15.080089 129.310917 -177.990562
5.441250e+09 15.664785 129.773896 -176.661326
5.441500e+09 15.505066 129.577549 -177.046957
5.441750e+09 15.086433 129.410391 -179.089665
5.442000e+09 14.814220 129.173158 -179.365764
5.442250e+09 15.051435 129.590603 -177.650532
5.442500e+09 14.880068 129.223356 -178.772577
5.442750e+09 15.765121 129.959743 -177.242615
5.443000e+09 15.588555 129.775613 -176.388062
5.443250e+09 15.440452 129.918192 -177.509484
5.443500e+09 14.656050 129.102052 -179.924624
5.443750e+09 14.571295 129.122985 179.737811
5.444000e+09 14.382232 129.081716 -179.481616
5.444250e+09 15.495314 129.962503 -177.367249
5.444500e+09 15.291215 129.497302 -177.654091
5.444750e+09 14.681941 129.227716 -179.650600
5.445000e+09 15.060789 129.732473 -178.613733
5.445250e+09 15.290672 129.797828 -177.311604
5.445500e+09 14.566587 129.577153 179.675130
5.445750e+09 14.443292 129.064409 179.327268
5.446000e+09 15.387522 129.776519 -177.922649
5.446250e+09 15.484718 129.837763 -176.853931
5.446500e+09 15.345209 129.864562 -179.715178
5.446750e+09 14.457521 129.194695 -179.087219
5.447000e+09 14.803361 129.485277 179.541749
5.447250e+09 14.831773 129.639831 -179.367146
5.447500e+09 15.006126 129.464174 -178.156103
5.447750e+09 15.406024 130.034684 -179.625071
5.448000e+09 14.904358 129.642432 -178.867507
5.448250e+09 14.678574 129.466208 -178.695755
5.448500e+09 15.304327 129.836588 -177.880595
5.448750e+09 14.687482 129.324303 179.233781
5.449000e+09 15.241366 129.624086 -179.674376
5.449250e+09 14.487763 129.207602 -179.173227
5.449500e+09 14.550319 129.195472 179.345634
5.449750e+09 14.962723 129.756577 -179.359117
5.450000e+09 14.503584 129.119473 179.597947
5.450250e+09 15.066704 129.485957 -178.330075
5.450500e+09 14.705678 129.142741 179.586692
5.450750e+09 14.896012 129.343971 -178.093190
5.451000e+09 14.594391 129.586181 179.688798
5.451250e+09 14.489510 129.600169 178.999925
5.451500e+09 15.126277 129.780407 -178.618405
5.451750e+09 15.249469 129.734315 -178.503955
5.452000e+09 14.624019 129.252546 -178.063035
5.452250e+09 15.276518 129.950455 -178.379045
5.452500e+09 14.713928 129.566150 179.026252
5.452750e+09 15.269998 129.813374 -179.546578
5.453000e+09 14.911685 129.460470 179.354176
5.453250e+09 14.338954 129.118673 178.534260
5.453500e+09 14.153913 129.080269 178.764215
5.453750e+09 15.023081 129.771038 -178.623613
5.454000e+09 14.998788 129.871047 179.227224
5.454250e+09 14.436782 129.108781 178.818775
5.454500e+09 14.938108 129.455248 -179.998512
5.454750e+09 14.495001 129.270475 -178.503596
5.455000e+09 14.942319 129.763069 179.078762
5.455250e+09 14.602923 129.633785 179.738535
5.455500e+09 14.087152 129.174401 179.218414
5.455750e+09 14.335428 129.191735 -178.886145
5.456000e+09 15.061341 129.844524 178.626114
5.456250e+09 14.969832 129.520598 179.694739
5.456500e+09 15.372458 130.036264 -178.799287
5.456750e+09 14.931746 129.952954 179.186961
5.457000e+09 14.293895 129.331463 179.659873
5.457250e+09 15.019407 129.742392 -179.675202
5.457500e+09 14.626464 129.607250 179.157006
5.457750e+09 14.353397 129.336252 -179.943613
5.458000e+09 14.606134 129.499426 -179.762381
5.458250e+09 14.842164 129.582152 -179.894857
5.458500e+09 15.388031 129.987648 179.748716
5.458750e+09 15.104291 129.648162 179.298366
5.459000e+09 14.702723 129.438271 178.230877
5.459250e+09 14.871812 129.770774 179.464703
5.459500e+09 14.770042 129.564340 -179.791371
5.459750e+09 15.203554 130.124365 178.282021
5.460000e+09 14.147528 129.183681 176.940827
5.460250e+09 15.104225 129.841772 179.540278
5.460500e+09 14.532036 129.240528 -179.340742
5.460750e+09 14.819485 129.724364 -179.996489
5.461000e+09 14.224972 129.322246 179.059593
5.461250e+09 14.086769 129.234159 176.772460
5.461500e+09 13.963428 129.168990 176.926818
5.461750e+09 14.644321 129.584214 179.550931
5.462000e+09 15.243604 130.036595 179.860607
5.462250e+09 15.180168 129.927552 179.278021
5.462500e+09 15.105126 129.958312 179.520431
5.462750e+09 14.016044 129.219401 177.367796
5.463000e+09 14.210704 129.368940 178.815363
5.463250e+09 14.797416 129.991693 176.999995
5.463500e+09 14.669707 129.941538 177.218332
5.463750e+09 14.686339 130.027002 177.547527
5.464000e+09 15.053175 130.052626 178.802496
5.464250e+09 14.635011 129.469167 177.500134
5.464500e+09 14.537765 129.748256 177.989984
5.464750e+09 15.041341 130.147787 179.151080
5.465000e+09 14.623930 129.496537 178.860407
5.465250e+09 15.045553 129.769393 178.523062
5.465500e+09 15.003730 129.983032 176.814958
5.465750e+09 14.311422 129.577245 177.038536
5.466000e+09 14.223549 129.409111 176.047715
5.466250e+09 14.964861 129.976655 178.624247
5.466500e+09 14.228104 129.358055 176.556045
5.466750e+09 14.752190 130.035833 176.478237
5.467000e+09 14.758036 129.860324 178.661502
5.467250e+09 14.285748 129.280436 177.031693
5.467500e+09 14.743707 129.660577 177.135775
5.467750e+09 14.851756 129.713862 177.708274
5.468000e+09 14.909369 129.964215 178.961467
5.468250e+09 14.032901 129.203268 176.137374
5.468500e+09 14.531182 129.729491 177.973636
5.468750e+09 14.349007 129.429976 178.792384
5.469000e+09 14.105572 129.404542 175.848508
5.469250e+09 14.074786 129.401413 174.885477
5.469500e+09 14.697330 130.185700 177.628414
5.469750e+09 14.708225 130.041858 176.047153
5.470000e+09 14.063202 129.233595 175.259452
5.470250e+09 14.044616 129.446679 176.330002
5.470500e+09 14.187841 129.325248 178.313659
5.470750e+09 14.253845 129.417287 175.536731
5.471000e+09 14.328786 129.587102 175.167082
5.471250e+09 14.417907 129.575454 175.658942
5.471500e+09 14.157956 129.349532 178.399731
5.471750e+09 14.510896 129.821818 178.107594
5.472000e+09 14.674238 130.042050 175.647857
5.472250e+09 14.525360 129.626304 176.009780
5.472500e+09 14.407070 129.423421 176.061059
5.472750e+09 15.000151 130.115474 175.649599
5.473000e+09 14.773287 129.775725 176.975615
5.473250e+09 14.824951 130.125451 177.796157
5.473500e+09 14.134492 129.409684 174.945503
5.473750e+09 14.760195 129.913352 176.453922
5.474000e+09 13.930447 129.361576 176.752978
5.474250e+09 14.380093 129.587151 175.374245
5.474500e+09 13.876194 129.367464 174.323013
5.474750e+09 14.037419 129.594913 173.923111
5.475000e+09 14.213571 129.641471 176.623812
5.475250e+09 14.798100 129.980465 176.251277
5.475500e+09 13.856026 129.361785 174.143209
5.475750e+09 13.810719 129.420863 173.868995
5.476000e+09 13.781783 129.264995 173.690558
5.476250e+09 14.395834 130.082711 175.792561
5.476500e+09 14.727833 130.000465 176.341340
5.476750e+09 14.374512 129.677356 174.470178
5.477000e+09 13.710237 129.296194 173.658804
5.477250e+09 14.408540 130.162322 175.400172
5.477500e+09 13.780976 129.565960 174.978390
5.477750e+09 13.797913 129.644570 174.258430
5.478000e+09 14.290626 129.669934 174.660161
5.478250e+09 14.130855 129.438906 176.172954
5.478500e+09 13.640441 129.363278 175.020427
5.478750e+09 14.346811 130.037459 175.289047
5.479000e+09 14.709678 130.117331 174.997037
5.479250e+09 13.731050 129.280023 172.535860
5.479500e+09 13.809238 129.570219 173.826107
5.479750e+09 14.101365 129.475142 174.665685
5.480000e+09 14.416349 130.149849 174.141823
5.480250e+09 14.742396 130.126498 173.915219
5.480500e+09 14.461704 130.180570 173.073243
5.480750e+09 13.898051 129.603279 174.242293
5.481000e+09 14.219062 129.739302 174.867382
5.481250e+09 14.367087 130.091374 172.609607
5.481500e+09 14.217625 129.642598 173.097504
5.481750e+09 14.136868 129.857075 174.217880
5.482000e+09 14.008647 129.648423 172.008604
5.482250e+09 14.039602 129.511447 174.472997
5.482500e+09 14.242568 129.616009 173.371874
5.482750e+09 14.080629 129.730486 172.072413
5.483000e+09 13.829934 129.656845 173.602897
5.483250e+09 13.827372 129.704556 173.791143
5.483500e+09 13.796268 129.536003 174.723916
5.483750e+09 14.117241 130.011398 174.121782
5.484000e+09 13.703676 129.421796 171.247208
5.484250e+09 14.368681 130.103717 173.331624
5.484500e+09 13.958196 129.463929 173.615463
5.484750e+09 13.797607 129.648131 171.795181
5.485000e+09 13.931126 129.469044 172.585384
5.485250e+09 14.438102 130.083018 173.481247
5.485500e+09 14.500710 130.212036 173.632769
5.485750e+09 14.417608 130.283059 173.448733
5.486000e+09 13.609925 129.551331 171.053001
5.486250e+09 14.412883 129.993898 172.057760
5.486500e+09 14.456298 129.987963 171.561519
5.486750e+09 13.938672 129.755124 172.679048
5.487000e+09 13.986278 129.617938 172.914353
5.487250e+09 14.107704 130.008007 172.153962
5.487500e+09 13.508346 129.469835 172.181068
5.487750e+09 14.109904 130.144791 172.124316
5.488000e+09 14.227878 130.086209 172.231571
5.488250e+09 13.515977 129.556429 172.052919
5.488500e+09 13.559427 129.620953 171.912785
5.488750e+09 13.844601 129.475411 170.614911
5.489000e+09 14.413902 129.993597 170.797317
5.489250e+09 13.745059 129.353908 169.551761
5.489500e+09 13.500385 129.434888 169.119723
5.489750e+09 13.396981 129.499195 169.736533
5.490000e+09 13.155131 129.290677 169.792783
5.490250e+09 14.014025 129.991659 172.244111
5.490500e+09 13.744163 129.691153 170.058573
5.490750e+09 14.082713 129.753847 170.491121
5.491000e+09 13.254913 129.313084 170.608967
5.491250e+09 14.100666 129.832660 170.302805
5.491500e+09 14.456283 130.144284 171.572013
5.491750e+09 14.383946 129.976257 170.833450
5.492000e+09 14.282324 129.928115 170.793614
5.492250e+09 14.022828 129.719308 169.468450
5.492500e+09 13.438093 129.581430 170.957866
5.492750e+09 13.662441 129.705694 168.924127
5.493000e+09 14.242824 129.977801 169.985385
5.493250e+09 13.735690 129.626815 168.609487
5.493500e+09 13.478070 129.321260 168.315675
5.493750e+09 13.987566 129.891849 170.586493
5.494000e+09 13.536627 129.497785 168.505151
5.494250e+09 14.045999 129.833705 170.219089
5.494500e+09 13.972838 130.139750 170.615301
5.494750e+09 13.876234 129.756831 169.072139
5.495000e+09 13.657475 129.636922 167.906965
5.495250e+09 13.665897 129.435868 167.896285
5.495500e+09 13.233391 129.413132 168.369176
5.495750e+09 13.124542 129.409923 168.356789
5.496000e+09 13.614939 129.872011 169.795943
5.496250e+09 14.171628 130.078856 169.240455
5.496500e+09 13.647431 129.413461 169.004274
5.496750e+09 13.673813 129.872928 168.952363
5.497000e+09 13.922496 130.016251 169.853268
5.497250e+09 13.913223 129.960314 167.516132
5.497500e+09 13.839110 129.791785 168.545773
5.497750e+09 13.458898 129.685034 167.564548
5.498000e+09 14.098338 130.117382 168.669714
5.498250e+09 13.727224 129.702080 166.894875
5.498500e+09 14.078688 130.088541 168.757780
5.498750e+09 13.892692 130.131222 168.152833
5.499000e+09 13.720668 130.103694 167.847582
5.499250e+09 13.924827 129.906015 169.072750
5.499500e+09 14.172970 130.326315 168.418352
5.499750e+09 13.570700 129.842241 166.938657
5.500000e+09 13.382782 129.413576 166.277288
5.500250e+09 13.605514 129.800621 167.741970
5.500500e+09 13.388447 129.724396 166.736865
5.500750e+09 13.039469 129.401022 165.725905
5.501000e+09 13.691017 129.927373 167.590545
5.501250e+09 14.146540 130.192206 168.116051
5.501500e+09 14.165502 130.315286 168.190637
5.501750e+09 13.650118 129.904163 167.589553
5.502000e+09 13.168640 129.511682 165.080649
5.502250e+09 13.022230 129.401407 164.053700
5.502500e+09 12.913899 129.324646 164.310529
5.502750e+09 13.413097 129.677959 164.282915
5.503000e+09 13.792568 130.041289 167.232860
5.503250e+09 13.797948 129.850391 165.774149
5.503500e+09 13.478757 129.807483 166.507616
5.503750e+09 13.287123 129.675861 167.732680
5.504000e+09 13.993207 130.279264 167.590277
5.504250e+09 13.895563 129.831757 167.409591
5.504500e+09 13.593782 129.754698 166.907787
5.504750e+09 14.022810 129.983816 167.185769
5.505000e+09 13.947074 130.219730 164.743862
5.505250e+09 13.315749 129.487740 162.811185
5.505500e+09 13.636663 129.854893 165.284564
5.505750e+09 14.071576 130.165128 165.725982
5.506000e+09 13.553420 129.762951 163.586185
5.506250e+09 13.852128 129.952695 164.449172
5.506500e+09 13.544429 129.797714 163.440779
5.506750e+09 13.495850 129.625088 163.336677
5.507000e+09 13.478626 129.670554 162.719894
5.507250e+09 13.440538 129.628941 164.319048
5.507500e+09 13.480473 129.860619 165.249897
5.507750e+09 13.329144 129.746749 163.447255
5.508000e+09 13.857839 130.238043 165.494538
5.508250e+09 14.175731 130.405153 166.701268
5.508500e+09 13.474042 129.593095 161.638994
5.508750e+09 13.708316 129.734159 162.082694
5.509000e+09 13.376521 129.739289 162.606007
5.509250e+09 13.347261 129.755680 162.345851
5.509500e+09 13.190032 129.475236 161.742617
5.509750e+09 13.190721 129.537399 162.098536
5.510000e+09 13.500572 129.791935 164.173936
5.510250e+09 13.659326 130.067096 165.011657
5.510500e+09 13.638378 130.215705 164.055957
5.510750e+09 13.353124 129.977919 163.471573
5.511000e+09 13.504867 129.941061 162.399296
5.511250e+09 13.791284 130.120469 163.972835
5.511500e+09 13.209357 129.662916 162.432718
5.511750e+09 13.203447 129.805474 163.327437
5.512000e+09 13.856596 130.149880 163.256655
5.512250e+09 13.314619 129.556102 166.047188
5.512500e+09 13.798117 130.249037 164.724268
5.512750e+09 13.744459 130.096613 162.962821
5.513000e+09 14.102452 130.307065 164.103098
5.513250e+09 13.995529 130.436751 164.866967
5.513500e+09 13.376161 129.925806 161.970016
5.513750e+09 13.972997 130.293699 162.216655
5.514000e+09 13.168637 129.535540 160.633578
5.514250e+09 13.054358 129.497589 160.232591
5.514500e+09 13.137183 129.699190 162.496631
5.514750e+09 13.649521 130.313407 163.232227
5.515000e+09 13.488241 130.122201 161.736578
5.515250e+09 13.991073 130.372043 160.160742
5.515500e+09 13.703135 130.229910 162.498430
5.515750e+09 13.598742 130.253130 162.065300
5.516000e+09 13.469262 129.895600 160.525407
5.516250e+09 13.328947 129.606945 159.137085
5.516500e+09 13.379520 129.647264 158.741184
5.516750e+09 13.512729 130.058759 161.101128
5.517000e+09 13.955622 130.292652 164.075023
5.517250e+09 13.391972 129.667279 159.132218
5.517500e+09 13.335618 129.732288 160.654950
5.517750e+09 13.775472 130.038986 159.314554
5.518000e+09 13.434480 129.833952 158.782222
5.518250e+09 13.581734 130.154144 160.671892
5.518500e+09 13.645233 130.034894 160.207879
5.518750e+09 13.678975 129.920562 159.006504
5.519000e+09 13.739216 130.258433 160.778396
5.519250e+09 13.951688 130.301787 159.704079
5.519500e+09 13.558719 129.979197 159.256414
5.519750e+09 13.379454 129.983137 159.831061
5.520000e+09 13.943493 130.313417 161.884512
5.520250e+09 13.832510 130.066200 158.749398
5.520500e+09 13.600339 129.935118 159.652047
5.520750e+09 13.520908 129.873167 157.893245
5.521000e+09 13.778474 130.013048 157.743713
5.521250e+09 13.769663 130.199692 159.692449
5.521500e+09 14.027016 130.427245 160.746022
5.521750e+09 13.863502 130.365848 161.196575
5.522000e+09 13.555916 129.960788 156.611600
5.522250e+09 13.950217 130.337029 160.216966
5.522500e+09 13.215404 129.721836 156.148845
5.522750e+09 13.275572 129.855226 157.736269
5.523000e+09 13.656284 130.340244 157.961891
5.523250e+09 13.703093 130.125266 156.272479
5.523500e+09 13.840465 130.081960 156.132039
5.523750e+09 13.163930 129.677240 156.859328
5.524000e+09 13.182972 129.819774 157.974356
5.524250e+09 13.950406 130.362884 159.492824
5.524500e+09 13.139790 129.534249 154.612605
5.524750e+09 12.994219 129.575530 156.159121
5.525000e+09 13.408297 129.858654 156.598915
5.525250e+09 13.397648 130.000045 157.000619
5.525500e+09 13.323875 129.754731 155.099756
5.525750e+09 13.657511 130.128633 156.902128
5.526000e+09 14.054794 130.390636 158.995204
5.526250e+09 13.313236 129.821280 159.378271
5.526500e+09 13.582460 130.054658 156.297402
5.526750e+09 13.387563 129.725981 154.770919
5.527000e+09 13.275188 129.700976 154.904456
5.527250e+09 13.915658 130.168272 156.925268
5.527500e+09 13.976169 130.356300 158.762589
5.527750e+09 13.227773 129.792312 155.742087
5.528000e+09 13.340237 129.824369 154.465946
5.528250e+09 13.339969 129.625251 153.407887
5.528500e+09 13.209928 129.423431 153.009744
5.528750e+09 13.345905 129.732165 155.479178
5.529000e+09 14.026168 130.311987 157.584341
5.529250e+09 14.105202 130.329834 157.166805
5.529500e+09 13.464256 129.802147 152.844813
5.529750e+09 13.058911 129.523222 153.136599
5.530000e+09 13.350489 129.803305 152.978218
5.530250e+09 13.660097 130.158991 155.916234
5.530500e+09 13.494639 129.960128 154.241586
5.530750e+09 13.494964 129.927583 153.362581
5.531000e+09 13.522550 130.102572 154.718207
5.531250e+09 13.340078 129.840547 153.458951
5.531500e+09 13.650942 130.291484 155.332292
5.531750e+09 13.647925 130.285150 153.835922
5.532000e+09 14.038619 130.378827 153.393720
5.532250e+09 14.006412 130.230602 155.171056
5.532500e+09 14.215283 130.426765 155.795548
5.532750e+09 13.794785 130.043199 153.982661
5.533000e+09 13.919491 130.091769 152.495927
5.533250e+09 13.580608 129.734639 151.294096
5.533500e+09 13.505949 129.855276 152.430549
5.533750e+09 13.925784 130.113081 151.264611
5.534000e+09 14.011353 130.158557 151.264117
5.534250e+09 13.928502 130.175274 152.666548
5.534500e+09 14.051900 130.451530 152.825579
5.534750e+09 13.996332 130.289602 153.406732
5.535000e+09 14.235533 130.516923 149.201546
5.535250e+09 13.883553 130.265332 150.325363
5.535500e+09 13.807237 130.056917 149.632467
5.535750e+09 13.700619 130.013525 149.231675
5.536000e+09 13.338353 129.673125 148.915374
5.536250e+09 13.614083 129.834891 149.070526
5.536500e+09 13.935098 130.071861 149.051522
5.536750e+09 13.567097 129.955598 149.963920
5.537000e+09 13.493208 129.711718 148.266120
5.537250e+09 13.806932 130.014468 149.128227
5.537500e+09 13.858248 130.303283 151.317581
5.537750e+09 14.060178 130.423819 151.093219
5.538000e+09 14.104155 130.334812 151.478494
5.538250e+09 14.338580 130.502674 151.682804
5.538500e+09 14.160326 130.215207 149.661148
5.538750e+09 13.946379 130.243139 152.161001
5.539000e+09 14.049586 130.311314 150.548543
5.539250e+09 14.158563 130.507572 150.614063
5.539500e+09 14.222962 130.387568 150.214017
5.539750e+09 13.983756 130.286302 149.568303
5.540000e+09 13.766417 130.210658 151.622214
5.540250e+09 14.016488 130.371653 150.703261
5.540500e+09 13.230166 129.563750 146.678878
5.540750e+09 13.803834 130.074802 147.486512
5.541000e+09 13.915817 130.110774 147.858619
5.541250e+09 14.239274 130.282178 149.264255
5.541500e+09 13.769900 129.950061 147.311077
5.541750e+09 14.049413 130.229759 149.383047
5.542000e+09 14.040813 130.388557 149.089432
5.542250e+09 13.718384 130.018152 147.360705
5.542500e+09 13.719852 129.843514 146.084536
5.542750e+09 13.440587 129.760204 146.898744
5.543000e+09 13.541132 130.032604 148.307774
5.543250e+09 13.851452 130.320438 145.665462
5.543500e+09 13.479463 129.747295 145.322841
5.543750e+09 13.773401 130.144298 147.102284
5.544000e+09 14.022921 130.260613 144.562111
5.544250e+09 13.728537 130.051798 145.613047
5.544500e+09 14.227844 130.332125 148.380128
5.544750e+09 13.995456 130.142183 145.929552
5.545000e+09 13.572854 129.671792 144.828346
5.545250e+09 13.795987 129.811531 143.731219
5.545500e+09 13.524015 129.750158 144.469898
5.545750e+09 13.937017 129.994889 143.595369
5.546000e+09 14.052721 129.962738 143.111029
5.546250e+09 13.706090 129.574622 142.258214
5.546500e+09 13.748654 129.801124 142.648850
5.546750e+09 13.487004 129.816209 144.989806
5.547000e+09 13.911531 130.080577 143.593646
5.547250e+09 13.757203 129.954215 143.510449
5.547500e+09 13.562113 129.891918 144.303772
5.547750e+09 13.652603 130.080722 145.404421
5.548000e+09 14.179946 130.396591 141.927150
5.548250e+09 14.265450 130.232496 145.107762
5.548500e+09 14.506994 130.379895 141.668740
5.548750e+09 13.634094 129.845797 143.251398
5.549000e+09 13.536219 129.675636 142.022054
5.549250e+09 13.446921 129.748916 143.776116
5.549500e+09 13.962253 130.346691 145.713196
5.549750e+09 13.439736 129.772944 142.222381
5.550000e+09 13.700241 129.943554 142.051024
5.550250e+09 13.774773 129.963097 142.484287
5.550500e+09 14.261997 130.283292 144.344156
5.550750e+09 14.321628 130.255459 142.728803
5.551000e+09 14.356928 130.186255 142.425064
5.551250e+09 14.400369 130.233138 141.479801
5.551500e+09 14.437488 130.256647 143.589647
5.551750e+09 14.168294 130.402663 144.502607
5.552000e+09 14.152259 130.218097 141.561247
5.552250e+09 13.492384 129.683559 144.344400
5.552500e+09 13.813524 130.213453 142.606487
5.552750e+09 14.012840 130.403363 144.112821
5.553000e+09 14.246988 130.427325 142.901425
5.553250e+09 14.286305 130.442500 142.534038
5.553500e+09 14.184387 130.307110 142.151709
5.553750e+09 14.422737 130.348567 140.604180
5.554000e+09 14.421918 130.249783 140.904453
5.554250e+09 14.257850 130.232375 139.964432
5.554500e+09 14.014938 129.829394 138.333892
5.554750e+09 13.707187 129.559764 137.171193
5.555000e+09 13.743056 129.566714 136.762205
5.555250e+09 13.595695 129.785051 139.058146
5.555500e+09 14.065738 130.165142 138.965075
5.555750e+09 14.044469 130.264378 140.599674
5.556000e+09 14.059136 130.202440 139.187611
5.556250e+09 13.416542 129.613651 136.277307
5.556500e+09 14.028835 130.211224 138.301959
5.556750e+09 13.737892 129.707968 136.865787
5.557000e+09 13.686600 129.479365 135.693529
5.557250e+09 13.750537 129.827412 137.969767
5.557500e+09 13.864007 129.767105 137.280621
5.557750e+09 13.609730 129.745667 138.209141
5.558000e+09 13.728198 129.980306 138.772323
5.558250e+09 13.928330 130.007305 137.081889
5.558500e+09 14.000592 130.276191 139.116857
5.558750e+09 14.083958 130.383275 140.231244
5.559000e+09 13.714218 129.660425 135.270032
5.559250e+09 13.432662 129.612646 137.386619
5.559500e+09 13.756669 129.941968 137.571048
5.559750e+09 14.429901 130.330349 139.435053
5.560000e+09 14.556508 130.344247 137.562856
5.560250e+09 14.679980 130.384187 137.932263
5.560500e+09 14.762805 130.460053 134.754690
5.560750e+09 13.877435 129.621630 133.730727
5.561000e+09 13.856693 129.995068 135.863903
5.561250e+09 14.018174 129.906214 135.037793
5.561500e+09 14.242597 130.255587 136.432591
5.561750e+09 14.635345 130.375187 136.598911
5.562000e+09 14.200491 130.267632 136.635677
5.562250e+09 14.032835 129.836564 134.240354
5.562500e+09 14.155241 129.959435 133.263139
5.562750e+09 14.206981 130.308610 135.933940
5.563000e+09 14.063901 130.253110 137.162824
5.563250e+09 14.050501 130.301653 135.617542
5.563500e+09 13.926164 129.852857 133.435701
5.563750e+09 14.176745 130.203354 134.888741
5.564000e+09 14.345290 130.354833 132.291989
5.564250e+09 14.037000 129.803279 131.973224
5.564500e+09 14.037991 129.757322 131.872362
5.564750e+09 13.756379 129.842364 133.785828
5.565000e+09 14.303174 130.075116 132.819626
5.565250e+09 13.963567 130.019882 133.936390
5.565500e+09 13.989332 129.832416 131.921434
5.565750e+09 13.874818 129.944702 132.591837
5.566000e+09 14.126789 129.925008 131.075268
5.566250e+09 14.249284 129.966437 130.736089
5.566500e+09 13.789229 129.446076 130.437854
5.566750e+09 14.577032 130.341236 134.672913
5.567000e+09 14.460796 130.315635 132.372835
5.567250e+09 14.258031 129.981619 130.666241
5.567500e+09 14.087245 129.777823 129.860156
5.567750e+09 14.069350 130.166989 131.812727
5.568000e+09 13.366221 129.479181 128.636447
5.568250e+09 13.951303 129.766698 128.615956
5.568500e+09 13.987902 129.753016 128.247289
5.568750e+09 13.862588 129.990018 130.289488
5.569000e+09 14.485284 130.327081 131.807399
5.569250e+09 14.425472 130.288353 131.088329
5.569500e+09 14.290722 129.952963 129.572048
5.569750e+09 13.929896 129.510779 128.010085
5.570000e+09 13.792450 129.851259 129.998834
5.570250e+09 14.232596 130.287110 132.192478
5.570500e+09 14.412942 130.227666 130.571380
5.570750e+09 13.625749 129.737356 132.395604
5.571000e+09 14.200910 129.986583 129.082303
5.571250e+09 13.766071 129.869103 129.270622
5.571500e+09 13.807843 129.547639 127.332990
5.571750e+09 13.901360 129.643445 127.443460
5.572000e+09 14.007577 130.061358 129.093401
5.572250e+09 14.599058 130.373036 130.498107
5.572500e+09 14.376847 130.276721 130.372333
5.572750e+09 14.136159 130.280134 130.964626
5.573000e+09 14.526678 130.432442 127.585505
5.573250e+09 14.291932 130.356106 130.443690
5.573500e+09 14.115263 130.282565 129.756399
5.573750e+09 14.395586 130.448780 127.178187
5.574000e+09 13.798365 129.944417 128.433658
5.574250e+09 14.212047 130.399482 129.897074
5.574500e+09 14.161180 130.311350 129.578413
5.574750e+09 13.947077 130.107911 128.967882
5.575000e+09 13.982114 129.879052 127.677375
5.575250e+09 14.115650 129.826572 126.316343
5.575500e+09 13.841820 129.422885 124.301237
5.575750e+09 14.311591 130.238675 128.064479
5.576000e+09 14.240306 130.245674 128.082367
5.576250e+09 13.511795 129.660155 129.569056
5.576500e+09 13.400689 129.459923 122.548580
5.576750e+09 13.650662 129.447461 123.918655
5.577000e+09 13.438398 129.387795 124.259954
5.577250e+09 14.387913 130.407140 128.057057
5.577500e+09 13.490863 129.639910 125.104338
5.577750e+09 13.838613 129.584055 122.798561
5.578000e+09 13.780988 129.371723 121.657695
5.578250e+09 14.002325 129.535477 121.724644
5.578500e+09 13.741609 129.700035 124.907702
5.578750e+09 14.222329 130.289283 125.990480
5.579000e+09 14.140661 130.275852 126.652550
5.579250e+09 14.061704 130.240900 126.774522
5.579500e+09 14.167395 129.903631 123.399051
5.579750e+09 14.091638 129.617378 122.298226
5.580000e+09 14.153734 130.051530 124.899613
5.580250e+09 14.453542 130.371372 125.963396
5.580500e+09 14.153608 130.190713 125.445973
5.580750e+09 14.091167 130.258222 125.334241
5.581000e+09 14.242137 129.933267 122.151096
5.581250e+09 14.035788 129.680643 120.661695
5.581500e+09 13.988447 129.734459 120.269831
5.581750e+09 13.840127 129.568311 119.411035
5.582000e+09 13.694786 129.483036 119.164547
5.582250e+09 13.637470 129.689519 121.363009
5.582500e+09 14.136045 130.230640 122.307638
5.582750e+09 14.047701 129.766455 119.784296
5.583000e+09 14.047027 129.756357 118.892284
5.583250e+09 13.653574 129.669108 121.516703
5.583500e+09 14.074218 129.761747 119.375931
5.583750e+09 13.957388 129.760419 119.167272
5.584000e+09 13.791587 129.689224 121.541270
5.584250e+09 13.881170 129.911384 122.938912
5.584500e+09 13.797008 129.508659 120.021203
5.584750e+09 13.952227 129.964978 121.598530
5.585000e+09 14.465050 130.291280 120.431655
5.585250e+09 13.657302 129.725905 121.553970
5.585500e+09 14.052459 130.162862 121.808433
5.585750e+09 13.895934 130.065489 122.029039
5.586000e+09 14.356376 130.280545 121.945269
5.586250e+09 13.956203 129.867129 120.122334
5.586500e+09 14.201826 130.029251 118.966983
5.586750e+09 14.138647 130.154178 120.419098
5.587000e+09 13.606998 129.379810 120.211860
5.587250e+09 13.945441 129.813246 119.304198
5.587500e+09 14.012141 129.958259 118.951191
5.587750e+09 14.177527 130.093299 118.559570
5.588000e+09 14.008670 129.899288 119.634572
5.588250e+09 14.222779 130.125863 119.448628
5.588500e+09 13.808703 129.396332 117.060278
5.588750e+09 14.135709 129.619091 115.851787
5.589000e+09 14.044421 129.710759 115.857671
5.589250e+09 14.310432 130.232284 119.324273
5.589500e+09 14.238587 130.314271 120.575985
5.589750e+09 14.184432 129.853616 118.318560
5.590000e+09 14.351013 130.150139 117.851253
5.590250e+09 13.842862 129.452967 117.078933
5.590500e+09 13.974967 129.453947 116.142313
5.590750e+09 14.014182 129.895988 117.877923
5.591000e+09 13.861519 129.445744 116.933873
5.591250e+09 14.360710 129.824774 115.681683
5.591500e+09 13.617395 129.524012 116.804329
5.591750e+09 14.210455 129.789558 116.066609
5.592000e+09 13.937413 129.435476 114.799711
5.592250e+09 13.850639 129.465348 114.444428
5.592500e+09 13.772033 129.732165 116.846781
5.592750e+09 14.221905 130.073924 117.897066
5.593000e+09 13.934307 129.796595 116.467220
5.593250e+09 14.055435 129.881060 117.647255
5.593500e+09 13.819163 129.502534 117.805196
5.593750e+09 13.863175 129.300232 114.949428
5.594000e+09 14.209799 129.634198 115.392057
5.594250e+09 13.771279 129.642331 116.740295
5.594500e+09 14.161458 130.182827 118.013137
5.594750e+09 14.178448 129.748134 114.521262
5.595000e+09 14.403655 129.929623 113.307788
5.595250e+09 13.529434 129.356215 114.405565
5.595500e+09 14.019608 129.681533 112.599630
5.595750e+09 13.953630 129.846793 114.618276
5.596000e+09 13.739711 129.736384 116.089335
5.596250e+09 14.289966 130.014664 113.516794
5.596500e+09 13.779896 129.698444 115.293680
5.596750e+09 14.221673 129.803100 114.503398
5.597000e+09 14.296803 130.142195 115.413545
5.597250e+09 14.195770 129.736963 114.071069
5.597500e+09 13.929961 129.288563 112.802526
5.597750e+09 14.222960 129.978612 115.948731
5.598000e+09 14.319739 130.001485 116.275179
5.598250e+09 14.132618 130.017688 117.059519
5.598500e+09 14.032583 129.791705 114.183961
5.598750e+09 13.878213 129.844494 115.392037
5.599000e+09 13.640169 129.579323 115.754381
5.599250e+09 13.891097 129.826316 115.956221
5.599500e+09 14.631969 130.125006 113.653133
5.599750e+09 13.950168 129.409409 110.971724
5.600000e+09 14.211597 129.525443 111.457143
5.600250e+09 14.186312 129.667441 110.897833
5.600500e+09 14.375415 129.678680 110.572163
5.600750e+09 13.920994 129.564763 111.432499
5.601000e+09 14.032405 129.748908 111.264994
5.601250e+09 14.049610 129.443679 109.760980
5.601500e+09 13.847605 129.349054 109.086227
5.601750e+09 14.240395 129.989973 112.794559
5.602000e+09 13.905537 129.459426 113.339113
5.602250e+09 14.025544 129.372711 112.007892
5.602500e+09 14.489270 130.126129 114.241494
5.602750e+09 14.461173 129.822246 111.469085
5.603000e+09 14.270599 129.932449 114.046584
5.603250e+09 14.429959 130.009408 114.276294
5.603500e+09 14.302227 130.055583 115.094133
5.603750e+09 14.382177 129.844323 111.334715
5.604000e+09 14.374519 129.758073 111.906217
5.604250e+09 14.175173 129.446190 110.277994
5.604500e+09 14.169386 129.837641 111.949486
5.604750e+09 13.799508 129.549124 112.478700
5.605000e+09 14.051394 129.892724 113.269498
5.605250e+09 14.107229 129.804206 110.982480
5.605500e+09 14.391921 129.949088 112.114923
5.605750e+09 14.355639 130.081424 112.485303
5.606000e+09 14.279498 129.851721 109.849571
5.606250e+09 14.412717 130.115376 112.014198
5.606500e+09 13.979685 129.407970 111.118907
5.606750e+09 14.398444 130.079553 112.314623
5.607000e+09 14.435738 129.791215 108.689999
5.607250e+09 14.436494 129.949113 111.472106
5.607500e+09 14.468688 129.859782 109.072188
5.607750e+09 14.873438 130.063021 109.154421
5.608000e+09 14.171070 129.373730 109.538848
5.608250e+09 14.034943 129.606418 111.631178
5.608500e+09 13.919188 129.316670 111.874897
5.608750e+09 14.574627 130.132152 110.996494
5.609000e+09 14.340667 129.924600 109.423166
5.609250e+09 14.635482 129.823582 108.585188
5.609500e+09 14.651009 130.052464 111.140447
5.609750e+09 14.824331 129.937617 108.501476
5.610000e+09 14.844554 130.128029 110.492902
5.610250e+09 14.415650 129.730464 108.054465
5.610500e+09 14.259069 129.796928 110.275287
5.610750e+09 14.657439 130.156111 111.380244
5.611000e+09 13.974686 129.288045 108.053568
5.611250e+09 14.249427 129.414493 105.924781
5.611500e+09 14.787274 130.045315 109.184422
5.611750e+09 14.146778 129.206703 106.860293
5.612000e+09 14.279492 129.598205 107.005748
5.612250e+09 14.130382 129.654740 108.373374
5.612500e+09 14.390467 129.707926 109.123733
5.612750e+09 14.368605 129.569651 106.425434
5.613000e+09 14.414049 129.382907 105.914085
5.613250e+09 14.323360 129.428368 108.312498
5.613500e+09 14.387468 129.353510 107.314207
5.613750e+09 14.060429 129.450681 110.102372
5.614000e+09 14.386607 129.704803 106.896927
5.614250e+09 14.200407 129.240255 104.998242
5.614500e+09 14.403726 129.312482 104.847455
5.614750e+09 14.392337 129.363163 104.355537
5.615000e+09 14.311465 129.394758 104.095848
5.615250e+09 14.656985 130.047884 107.903514
5.615500e+09 14.890629 130.124911 105.662172
5.615750e+09 14.417214 129.724856 105.217663
5.616000e+09 14.550909 129.979808 107.041820
5.616250e+09 14.807081 130.102606 108.277478
5.616500e+09 14.229805 129.499688 106.256203
5.616750e+09 14.590804 129.542411 105.105202
5.617000e+09 14.457125 129.557059 104.590372
5.617250e+09 14.319475 129.224760 103.687647
5.617500e+09 14.831926 129.972696 107.581889
5.617750e+09 15.209333 130.110004 105.709026
5.618000e+09 14.912539 130.021449 108.135623
5.618250e+09 14.856359 129.941592 108.852331
5.618500e+09 14.774442 129.964304 109.899195
5.618750e+09 14.639026 129.481813 105.781828
5.619000e+09 14.851537 129.890410 108.226641
5.619250e+09 14.090445 129.293781 105.905095
5.619500e+09 14.172716 129.417449 108.241006
5.619750e+09 14.467747 129.571817 105.737395
5.620000e+09 14.575511 129.802468 108.064325
5.620250e+09 14.357896 129.218685 104.393815
5.620500e+09 14.906815 129.959331 107.131402
5.620750e+09 14.930986 129.887768 107.973521
5.621000e+09 14.782589 129.896205 109.009233
5.621250e+09 14.737299 129.512745 106.175990
5.621500e+09 14.994026 129.978776 106.061569
5.621750e+09 14.610684 129.358962 105.254846
5.622000e+09 15.258322 130.029439 106.973791
5.622250e+09 14.827828 129.532012 106.569379
5.622500e+09 15.141196 129.807942 104.084014
5.622750e+09 14.340835 129.133016 103.123776
5.623000e+09 14.759897 129.763256 105.535502
5.623250e+09 14.222003 129.411332 106.585440
5.623500e+09 14.202833 129.215926 103.632341
5.623750e+09 15.176215 129.986292 105.644803
5.624000e+09 14.461421 129.415592 107.439238
5.624250e+09 14.456767 129.166601 103.380850
5.624500e+09 14.962905 129.671218 105.468475
5.624750e+09 14.767442 129.500875 106.786331
5.625000e+09 14.758248 129.614617 107.939606
5.625250e+09 14.494534 129.354236 104.593376
5.625500e+09 14.261558 129.214849 105.617306
5.625750e+09 14.966317 129.882318 106.853200
5.626000e+09 14.799452 129.734019 104.919119
5.626250e+09 14.380049 129.138020 102.709455
5.626500e+09 14.467042 129.029061 101.207252
5.626750e+09 14.903359 129.422359 103.867579
5.627000e+09 14.517911 129.338961 104.457635
5.627250e+09 15.045034 129.681881 104.770305
5.627500e+09 14.867656 129.496183 103.831160
5.627750e+09 14.516830 129.408618 104.233810
5.628000e+09 14.475971 129.115814 101.345073
5.628250e+09 14.485090 129.149011 100.794182
5.628500e+09 14.685520 129.498148 102.198787
5.628750e+09 14.841947 129.722460 104.370682
5.629000e+09 14.784549 129.259258 102.962419
5.629250e+09 14.509728 128.987457 101.017257
5.629500e+09 14.589896 129.353431 104.334461
5.629750e+09 14.745779 129.584875 104.411926
5.630000e+09 14.325012 129.094630 103.417758
5.630250e+09 14.565596 129.020120 100.748712
5.630500e+09 14.740522 129.010667 100.262536
5.630750e+09 14.733996 129.427942 105.579201
5.631000e+09 14.844457 129.627737 105.054147
5.631250e+09 14.576099 129.358423 105.434349
5.631500e+09 14.643254 129.096244 103.701580
5.631750e+09 14.577811 129.207063 106.057748
5.632000e+09 14.671539 129.114860 105.322744
5.632250e+09 14.725607 129.332168 106.386587
5.632500e+09 15.024713 129.633113 106.401296
5.632750e+09 15.026352 128.967577 103.167156
5.633000e+09 15.421207 129.693080 101.539711
5.633250e+09 14.753870 129.208421 106.485172
5.633500e+09 15.229593 129.493522 104.362281
5.633750e+09 14.860911 129.297679 104.994133
5.634000e+09 15.161286 129.445529 103.913942
5.634250e+09 14.918848 129.436250 105.197556
5.634500e+09 14.762871 129.372740 105.814511
5.634750e+09 14.669782 129.222995 103.018043
5.635000e+09 14.874456 129.390634 104.964788
5.635250e+09 14.679935 128.857393 101.866830
5.635500e+09 14.979825 129.327666 104.297550
5.635750e+09 14.595098 129.041473 103.988076
5.636000e+09 15.042526 129.258133 100.972954
5.636250e+09 14.893151 129.057145 101.717006
5.636500e+09 14.941419 128.912590 100.019282
5.636750e+09 14.917713 128.889231 99.570754
5.637000e+09 15.137767 129.342490 100.709725
5.637250e+09 14.810009 128.696364 100.822831
5.637500e+09 14.616424 128.775792 99.800393
5.637750e+09 14.908101 129.309724 102.365057
5.638000e+09 14.806675 129.034036 100.422268
5.638250e+09 15.128482 129.252077 102.423312
5.638500e+09 15.168620 129.377044 103.857813
5.638750e+09 15.036084 129.315423 101.861781
5.639000e+09 15.024768 128.999488 99.524696
5.639250e+09 15.282875 129.161017 99.417295
5.639500e+09 15.027222 129.251529 104.554312
5.639750e+09 14.448776 128.709212 102.471063
5.640000e+09 14.663258 129.049009 102.919007
5.640250e+09 14.646973 129.019985 100.402446
5.640500e+09 15.152125 129.095466 99.583805
5.640750e+09 15.120973 129.091967 102.817499
5.641000e+09 15.210615 129.335357 101.600392
5.641250e+09 15.086313 128.951203 100.658224
5.641500e+09 15.152198 129.104802 103.372827
5.641750e+09 15.088396 128.950953 102.837979
5.642000e+09 14.769670 128.759227 100.665338
5.642250e+09 14.762852 128.866781 103.922492
5.642500e+09 14.881333 128.691472 101.506142
5.642750e+09 15.089241 128.783950 100.676642
5.643000e+09 14.780546 128.719680 101.021164
5.643250e+09 14.805449 128.872171 103.922340
5.643500e+09 14.537436 128.596670 101.209049
5.643750e+09 14.962938 128.860148 100.227613
5.644000e+09 15.043152 128.670422 99.613862
5.644250e+09 14.879141 128.839784 102.376687
5.644500e+09 15.156623 128.856392 100.934828
5.644750e+09 15.241619 128.805034 102.333250
5.645000e+09 14.613145 128.425865 100.280307
5.645250e+09 15.278761 128.928686 99.422890
5.645500e+09 15.381107 129.055314 103.594263
5.645750e+09 15.163785 128.778214 102.196876
5.646000e+09 14.719533 128.603683 104.306161
5.646250e+09 14.787341 128.619804 104.318720
5.646500e+09 15.182458 129.177287 103.422101
5.646750e+09 14.693536 128.585663 104.271618
5.647000e+09 14.893593 128.892191 103.788258
5.647250e+09 14.687253 128.542073 104.049777
5.647500e+09 14.675150 128.648390 104.034493
5.647750e+09 14.556589 128.421390 104.235300
5.648000e+09 14.927544 128.715993 104.846492
5.648250e+09 14.955848 128.669132 104.321392
5.648500e+09 15.197936 128.762489 101.308148
5.648750e+09 15.279253 128.849925 100.087610
5.649000e+09 14.736465 128.406466 104.670724
5.649250e+09 15.203909 128.785362 104.149384
5.649500e+09 15.077596 128.624811 100.739643
5.649750e+09 14.409471 128.247106 101.760058
5.650000e+09 14.917372 128.560100 102.583908
5.650250e+09 14.323732 128.138672 103.714654
5.650500e+09 14.777187 128.393449 103.084450
5.650750e+09 14.727924 128.253619 100.509490
5.651000e+09 14.616191 128.391722 102.993805
5.651250e+09 14.353831 128.107196 101.877608
5.651500e+09 15.231849 128.712623 100.428771
5.651750e+09 14.734082 128.200278 102.858090
5.652000e+09 15.108615 128.509074 102.822369
5.652250e+09 14.422295 128.082636 103.935643
5.652500e+09 14.560936 128.076994 100.230115
5.652750e+09 14.487118 128.120387 100.214354
5.653000e+09 14.479885 128.184110 102.672194
5.653250e+09 14.561998 128.191433 100.319653
5.653500e+09 14.684608 128.240037 99.142789
5.653750e+09 14.658988 128.135398 97.821804
5.654000e+09 14.503532 128.098180 101.273349
5.654250e+09 14.834603 128.200697 101.247925
5.654500e+09 14.409211 127.995740 102.150496
5.654750e+09 15.213747 128.616267 101.540576
5.655000e+09 14.523428 128.081728 102.425212
5.655250e+09 14.624485 128.137810 100.709530
5.655500e+09 14.968293 128.278410 98.941068
5.655750e+09 14.984165 128.211646 101.548892
5.656000e+09 14.744448 128.174153 103.815831
5.656250e+09 15.218391 128.701980 100.821625
5.656500e+09 14.984755 128.257470 100.970314
5.656750e+09 14.653072 127.999962 100.093964
5.657000e+09 15.160293 128.297520 100.305837
5.657250e+09 14.882200 128.202459 102.075110
5.657500e+09 15.021253 128.251785 99.664761
5.657750e+09 15.157797 128.628380 101.913943
5.658000e+09 14.535399 127.961571 100.444817
5.658250e+09 14.203404 127.767832 100.886830
5.658500e+09 14.837391 128.183764 99.383742
5.658750e+09 15.072797 128.233438 99.082758
5.659000e+09 15.226790 128.273000 100.823577
5.659250e+09 14.692171 127.779312 101.991886
5.659500e+09 14.346588 127.708048 101.146183
5.659750e+09 14.912835 128.141551 99.758908
5.660000e+09 14.503516 127.884878 101.295653
5.660250e+09 14.202456 127.656959 100.562419
5.660500e+09 14.616530 127.936475 99.195595
5.660750e+09 14.179015 127.651421 100.262195
5.661000e+09 14.071585 127.592622 100.089159
5.661250e+09 14.871987 128.106903 99.088388
5.661500e+09 14.697494 127.981827 101.181832
5.661750e+09 14.208800 127.592236 100.316592
5.662000e+09 15.017669 128.200773 101.114910
5.662250e+09 14.321583 127.577370 100.414249
5.662500e+09 15.185836 128.227654 100.752716
5.662750e+09 14.491698 127.742026 102.194474
5.663000e+09 14.840744 127.945207 100.148492
5.663250e+09 14.237024 127.517315 99.485396
5.663500e+09 14.443937 127.680352 98.758059
5.663750e+09 15.009493 128.023159 98.379814
5.664000e+09 14.701791 127.872217 100.841383
5.664250e+09 15.209045 128.148595 100.923962
5.664500e+09 14.296294 127.484872 100.931698
5.664750e+09 14.531788 127.793261 102.292589
5.665000e+09 15.121474 128.078973 100.983087
5.665250e+09 14.251660 127.444967 99.892373
5.665500e+09 14.072487 127.375955 99.520910
5.665750e+09 14.010213 127.352358 99.461487
5.666000e+09 14.731053 127.907759 100.837213
5.666250e+09 14.885341 127.843814 99.368165
5.666500e+09 14.988218 127.947610 100.924523
5.666750e+09 14.804927 127.847483 102.289640
5.667000e+09 14.091508 127.346211 101.899647
5.667250e+09 14.517456 127.718578 102.763205
5.667500e+09 14.497921 127.578896 100.329157
5.667750e+09 15.058920 127.871606 99.101249
5.668000e+09 14.451995 127.489997 97.999493
5.668250e+09 14.686826 127.728592 100.128966
5.668500e+09 14.818285 127.811745 101.871052
5.668750e+09 14.167334 127.377003 102.281988
5.669000e+09 14.663454 127.736464 102.743657
5.669250e+09 14.437005 127.570128 103.512451
5.669500e+09 14.828818 127.801896 103.545432
5.669750e+09 14.156767 127.352063 103.457014
5.670000e+09 14.655225 127.696568 103.657687
5.670250e+09 13.984166 127.208189 102.961496
5.670500e+09 14.087785 127.334958 103.196594
5.670750e+09 13.880671 127.146770 101.605896
5.671000e+09 13.999578 127.254153 101.939131
5.671250e+09 13.828958 127.110507 100.788588
5.671500e+09 13.770077 127.073922 100.449631
5.671750e+09 14.838092 127.753595 100.345621
5.672000e+09 13.915109 127.110879 100.301086
5.672250e+09 13.806994 127.052416 99.821964
5.672500e+09 13.750980 127.031310 99.569008
5.672750e+09 14.564210 127.595202 100.852232
5.673000e+09 14.018853 127.129721 99.328398
5.673250e+09 14.277685 127.368101 101.123659
5.673500e+09 14.182788 127.306092 102.081014
5.673750e+09 14.136462 127.199362 99.904564
5.674000e+09 14.173500 127.279809 101.098608
5.674250e+09 14.703477 127.580027 101.666360
5.674500e+09 14.759253 127.502058 99.774824
5.674750e+09 14.345877 127.337992 101.180578
5.675000e+09 14.764518 127.513126 99.796962
5.675250e+09 13.875785 126.994705 99.110094
5.675500e+09 14.822052 127.592943 99.495423
5.675750e+09 14.502725 127.409178 101.265249
5.676000e+09 14.676095 127.423332 99.477768
5.676250e+09 13.856983 126.990632 99.668108
5.676500e+09 13.717427 126.919618 99.650018
5.676750e+09 13.988385 127.060075 98.178924
5.677000e+09 13.715828 126.874716 97.987242
5.677250e+09 13.781838 126.940023 97.746508
5.677500e+09 13.677047 126.878785 98.616670
5.677750e+09 14.727654 127.507621 99.090675
5.678000e+09 14.942758 127.564970 99.134098
5.678250e+09 14.914094 127.553872 99.907752
5.678500e+09 14.487420 127.333313 101.241180
5.678750e+09 13.834681 126.952463 101.423243
5.679000e+09 13.758076 126.948023 101.472860
5.679250e+09 14.653539 127.423201 100.140699
5.679500e+09 14.738775 127.387053 98.549898
5.679750e+09 14.882111 127.461609 98.109486
5.680000e+09 14.912626 127.503329 98.958212
5.680250e+09 14.628882 127.375266 100.570735
5.680500e+09 14.246918 127.078191 98.535099
5.680750e+09 14.275815 127.194968 100.357430
5.681000e+09 14.474447 127.227311 98.726057
5.681250e+09 14.770876 127.435508 99.504564
5.681500e+09 14.795493 127.384804 98.641279
5.681750e+09 14.359757 127.113858 96.964865
5.682000e+09 13.664913 126.750184 96.993305
5.682250e+09 14.441638 127.287089 99.201159
5.682500e+09 13.599086 126.722860 98.988781
5.682750e+09 14.405663 127.277356 100.382947
5.683000e+09 14.487213 127.202219 98.738223
5.683250e+09 13.706865 126.798852 99.788822
5.683500e+09 14.577873 127.320665 99.169749
5.683750e+09 14.195484 127.016999 97.260503
5.684000e+09 14.041022 126.940614 96.550651
5.684250e+09 14.597054 127.256601 96.504186
5.684500e+09 14.123786 127.052742 98.953156
5.684750e+09 14.194297 127.125331 100.651341
5.685000e+09 14.321037 127.182323 101.392308
5.685250e+09 13.517250 126.652710 100.395809
5.685500e+09 14.037075 126.957720 98.094721
5.685750e+09 13.587022 126.722102 99.591037
5.686000e+09 13.508788 126.689137 100.301775
5.686250e+09 13.763301 126.811427 97.787951
5.686500e+09 13.937154 126.961025 99.597407
5.686750e+09 13.455043 126.623293 99.910225
5.687000e+09 13.446451 126.624674 98.484947
5.687250e+09 14.286282 127.188719 100.041018
5.687500e+09 14.194564 127.101451 101.366600
5.687750e+09 14.384672 127.110061 99.300745
5.688000e+09 13.532271 126.661966 100.011832
5.688250e+09 13.368221 126.575597 99.475095
5.688500e+09 13.859664 126.870336 97.138279
5.688750e+09 13.405173 126.573947 97.964492
5.689000e+09 14.429143 127.178011 97.686280
5.689250e+09 13.486549 126.585827 97.253303
5.689500e+09 14.426916 127.222944 98.764537
5.689750e+09 13.831095 126.776140 97.013330
5.690000e+09 13.671776 126.768829 99.333699
5.690250e+09 14.246872 127.128003 100.332214
5.690500e+09 14.627358 127.271719 100.091029
5.690750e+09 13.806623 126.833864 101.074814
5.691000e+09 13.697349 126.734448 98.010881
5.691250e+09 13.963955 126.875295 96.156670
5.691500e+09 14.250874 127.099073 98.330687
5.691750e+09 14.148319 126.963924 97.080668
5.692000e+09 14.559367 127.210132 97.211559
5.692250e+09 13.450435 126.552890 97.099968
5.692500e+09 13.830102 126.831508 95.908991
5.692750e+09 14.298786 127.128051 97.878396
5.693000e+09 13.850648 126.886315 99.944948
5.693250e+09 14.502246 127.220293 99.524895
5.693500e+09 13.384080 126.530079 98.995005
5.693750e+09 14.480182 127.179629 98.542022
5.694000e+09 14.304977 127.051928 97.117761
5.694250e+09 14.496278 127.179902 97.086060
5.694500e+09 13.447461 126.565924 96.872486
5.694750e+09 13.289936 126.526173 98.122500
5.695000e+09 13.366911 126.593206 96.905025
5.695250e+09 13.667058 126.840769 99.302383
5.695500e+09 13.594699 126.715862 96.989575
5.695750e+09 13.699225 126.754103 95.448665
5.696000e+09 14.317263 127.161469 97.552044
5.696250e+09 14.526605 127.236690 98.490852
5.696500e+09 13.421476 126.581422 99.351376
5.696750e+09 14.342029 127.166478 98.446773
5.697000e+09 13.394264 126.553140 98.818265
5.697250e+09 13.777652 126.841718 96.544138
5.697500e+09 14.248960 127.059744 96.120649
5.697750e+09 13.351515 126.532821 96.482297
5.698000e+09 13.803469 126.944239 98.557861
5.698250e+09 13.633659 126.741309 96.517899
5.698500e+09 14.197529 127.125687 98.322932
5.698750e+09 13.337247 126.532081 97.897473
5.699000e+09 13.263425 126.559873 99.035210
5.699250e+09 13.801136 126.926338 96.863468
5.699500e+09 13.958692 127.015030 98.674586
5.699750e+09 13.285278 126.519237 98.326614
5.700000e+09 14.267231 127.193603 97.960481
